|6.6.6
Archiving\03_Data\Dfrac/QFM_m0.25/WD94/WD94_2.tab                         
           1
T(K)    
  0.000000000000000E+000
  0.000000000000000E+000
           0
           3
T(K)           P(bar)         Sp(TH),kg     
  2000.00        2500.00                 NaN
  1997.49        2500.00                 NaN
  1994.99        2500.00                 NaN
  1992.48        2500.00                 NaN
  1989.97        2500.00                 NaN
  1987.47        2500.00                 NaN
  1984.96        2500.00                 NaN
  1982.46        2500.00                 NaN
  1979.95        2500.00                 NaN
  1977.44        2500.00                 NaN
  1974.94        2500.00                 NaN
  1972.43        2500.00                 NaN
  1969.92        2500.00                 NaN
  1967.42        2500.00                 NaN
  1964.91        2500.00                 NaN
  1962.41        2500.00                 NaN
  1959.90        2500.00                 NaN
  1957.39        2500.00                 NaN
  1954.89        2500.00                 NaN
  1952.38        2500.00                 NaN
  1949.87        2500.00                 NaN
  1947.37        2500.00                 NaN
  1944.86        2500.00                 NaN
  1942.36        2500.00                 NaN
  1939.85        2500.00                 NaN
  1937.34        2500.00                 NaN
  1934.84        2500.00                 NaN
  1932.33        2500.00                 NaN
  1929.82        2500.00                 NaN
  1927.32        2500.00                 NaN
  1924.81        2500.00                 NaN
  1922.31        2500.00                 NaN
  1919.80        2500.00                 NaN
  1917.29        2500.00                 NaN
  1914.79        2500.00                 NaN
  1912.28        2500.00                 NaN
  1909.77        2500.00                 NaN
  1907.27        2500.00       0.546503E-006
  1904.76        2500.00       0.485836E-005
  1902.26        2500.00       0.141684E-004
  1899.75        2500.00       0.139520E-004
  1897.24        2500.00       0.139208E-004
  1894.74        2500.00       0.137638E-004
  1892.23        2500.00       0.136298E-004
  1889.72        2500.00       0.134843E-004
  1887.22        2500.00       0.134027E-004
  1884.71        2500.00       0.132294E-004
  1882.21        2500.00       0.131412E-004
  1879.70        2500.00       0.130239E-004
  1877.19        2500.00       0.129368E-004
  1874.69        2500.00       0.127954E-004
  1872.18        2500.00       0.127065E-004
  1869.67        2500.00       0.126495E-004
  1867.17        2500.00       0.123854E-004
  1864.66        2500.00       0.124071E-004
  1862.16        2500.00       0.122221E-004
  1859.65        2500.00       0.121557E-004
  1857.14        2500.00       0.120506E-004
  1854.64        2500.00       0.120587E-004
  1852.13        2500.00       0.117763E-004
  1849.62        2500.00       0.117997E-004
  1847.12        2500.00       0.786899E-005
  1844.61        2500.00       0.153890E-004
  1842.11        2500.00       0.115050E-004
  1839.60        2500.00       0.113837E-004
  1837.09        2500.00       0.113124E-004
  1834.59        2500.00       0.112250E-004
  1832.08        2500.00       0.111792E-004
  1829.57        2500.00       0.110496E-004
  1827.07        2500.00       0.109490E-004
  1824.56        2500.00       0.108816E-004
  1822.06        2500.00       0.108040E-004
  1819.55        2500.00       0.107375E-004
  1817.04        2500.00       0.106772E-004
  1814.54        2500.00       0.106052E-004
  1812.03        2500.00       0.104456E-004
  1809.52        2500.00       0.104112E-004
  1807.02        2500.00       0.103347E-004
  1804.51        2500.00       0.102817E-004
  1802.01        2500.00       0.101806E-004
  1799.50        2500.00       0.101168E-004
  1796.99        2500.00       0.100524E-004
  1794.49        2500.00       0.997444E-005
  1791.98        2500.00       0.990888E-005
  1789.47        2500.00       0.985460E-005
  1786.97        2500.00       0.978106E-005
  1784.46        2500.00       0.975864E-005
  1781.95        2500.00       0.969292E-005
  1779.45        2500.00       0.943340E-005
  1776.94        2500.00       0.820512E-005
  1774.44        2500.00       0.107420E-004
  1771.93        2500.00       0.946511E-005
  1769.42        2500.00       0.923552E-005
  1766.92        2500.00       0.924561E-005
  1764.41        2500.00       0.917867E-005
  1761.90        2500.00       0.916657E-005
  1759.40        2500.00       0.902600E-005
  1756.89        2500.00       0.748083E-005
  1754.39        2500.00       0.104595E-004
  1751.88        2500.00       0.895208E-005
  1749.37        2500.00       0.873779E-005
  1746.87        2500.00       0.874498E-005
  1744.36        2500.00       0.870273E-005
  1741.85        2500.00       0.863345E-005
  1739.35        2500.00       0.858311E-005
  1736.84        2500.00       0.851170E-005
  1734.34        2500.00       0.855080E-005
  1731.83        2500.00       0.833009E-005
  1729.32        2500.00       0.834106E-005
  1726.82        2500.00       0.829214E-005
  1724.31        2500.00       0.835643E-005
  1721.80        2500.00       0.803351E-005
  1719.30        2500.00       0.810062E-005
  1716.79        2500.00       0.793436E-005
  1714.29        2500.00       0.812859E-005
  1711.78        2500.00       0.793648E-005
  1709.27        2500.00       0.788499E-005
  1706.77        2500.00       0.780497E-005
  1704.26        2500.00       0.777745E-005
  1701.75        2500.00       0.771380E-005
  1699.25        2500.00       0.762992E-005
  1696.74        2500.00       0.758953E-005
  1694.24        2500.00       0.755082E-005
  1691.73        2500.00       0.748714E-005
  1689.22        2500.00       0.107131E-004
  1686.72        2500.00       0.404677E-005
  1684.21        2500.00       0.732613E-005
  1681.70        2500.00       0.723363E-005
  1679.20        2500.00       0.717691E-005
  1676.69        2500.00       0.714775E-005
  1674.19        2500.00       0.704378E-005
  1671.68        2500.00       0.701471E-005
  1669.17        2500.00       0.695790E-005
  1666.67        2500.00       0.693935E-005
  1664.16        2500.00       0.656794E-005
  1661.65        2500.00       0.698488E-005
  1659.15        2500.00       0.674809E-005
  1656.64        2500.00       0.661221E-005
  1654.14        2500.00       0.660255E-005
  1651.63        2500.00       0.347060E-005
  1649.12        2500.00                 NaN
  1646.62        2500.00                 NaN
  1644.11        2500.00                 NaN
  1641.60        2500.00                 NaN
  1639.10        2500.00                 NaN
  1636.59        2500.00                 NaN
  1634.09        2500.00                 NaN
  1631.58        2500.00                 NaN
  1629.07        2500.00                 NaN
  1626.57        2500.00                 NaN
  1624.06        2500.00                 NaN
  1621.55        2500.00                 NaN
  1619.05        2500.00                 NaN
  1616.54        2500.00                 NaN
  1614.04        2500.00                 NaN
  1611.53        2500.00                 NaN
  1609.02        2500.00                 NaN
  1606.52        2500.00                 NaN
  1604.01        2500.00                 NaN
  1601.50        2500.00                 NaN
  1599.00        2500.00                 NaN
  1596.49        2500.00                 NaN
  1593.98        2500.00                 NaN
  1591.48        2500.00                 NaN
  1588.97        2500.00                 NaN
  1586.47        2500.00                 NaN
  1583.96        2500.00                 NaN
  1581.45        2500.00                 NaN
  1578.95        2500.00                 NaN
  1576.44        2500.00                 NaN
  1573.93        2500.00                 NaN
  1571.43        2500.00                 NaN
  1568.92        2500.00                 NaN
  1566.42        2500.00                 NaN
  1563.91        2500.00                 NaN
  1561.40        2500.00                 NaN
  1558.90        2500.00                 NaN
  1556.39        2500.00                 NaN
  1553.88        2500.00                 NaN
  1551.38        2500.00                 NaN
  1548.87        2500.00                 NaN
  1546.37        2500.00                 NaN
  1543.86        2500.00                 NaN
  1541.35        2500.00                 NaN
  1538.85        2500.00                 NaN
  1536.34        2500.00                 NaN
  1533.83        2500.00                 NaN
  1531.33        2500.00                 NaN
  1528.82        2500.00                 NaN
  1526.32        2500.00                 NaN
  1523.81        2500.00                 NaN
  1521.30        2500.00                 NaN
  1518.80        2500.00                 NaN
  1516.29        2500.00                 NaN
  1513.78        2500.00                 NaN
  1511.28        2500.00                 NaN
  1508.77        2500.00                 NaN
  1506.27        2500.00                 NaN
  1503.76        2500.00                 NaN
  1501.25        2500.00                 NaN
  1498.75        2500.00                 NaN
  1496.24        2500.00                 NaN
  1493.73        2500.00                 NaN
  1491.23        2500.00                 NaN
  1488.72        2500.00                 NaN
  1486.22        2500.00                 NaN
  1483.71        2500.00                 NaN
  1481.20        2500.00                 NaN
  1478.70        2500.00                 NaN
  1476.19        2500.00                 NaN
  1473.68        2500.00                 NaN
  1471.18        2500.00                 NaN
  1468.67        2500.00                 NaN
  1466.17        2500.00                 NaN
  1463.66        2500.00                 NaN
  1461.15        2500.00                 NaN
  1458.65        2500.00                 NaN
  1456.14        2500.00                 NaN
  1453.63        2500.00                 NaN
  1451.13        2500.00                 NaN
  1448.62        2500.00                 NaN
  1446.12        2500.00                 NaN
  1443.61        2500.00                 NaN
  1441.10        2500.00                 NaN
  1438.60        2500.00                 NaN
  1436.09        2500.00                 NaN
  1433.58        2500.00                 NaN
  1431.08        2500.00                 NaN
  1428.57        2500.00                 NaN
  1426.07        2500.00                 NaN
  1423.56        2500.00                 NaN
  1421.05        2500.00                 NaN
  1418.55        2500.00                 NaN
  1416.04        2500.00                 NaN
  1413.53        2500.00                 NaN
  1411.03        2500.00                 NaN
  1408.52        2500.00                 NaN
  1406.02        2500.00                 NaN
  1403.51        2500.00                 NaN
  1401.00        2500.00                 NaN
  1398.50        2500.00                 NaN
  1395.99        2500.00                 NaN
  1393.48        2500.00                 NaN
  1390.98        2500.00                 NaN
  1388.47        2500.00                 NaN
  1385.96        2500.00                 NaN
  1383.46        2500.00                 NaN
  1380.95        2500.00                 NaN
  1378.45        2500.00                 NaN
  1375.94        2500.00                 NaN
  1373.43        2500.00                 NaN
  1370.93        2500.00                 NaN
  1368.42        2500.00                 NaN
  1365.91        2500.00       0.102676E-004
  1363.41        2500.00       0.522731E-004
  1360.90        2500.00       0.507315E-004
  1358.40        2500.00       0.471422E-004
  1355.89        2500.00       0.439369E-004
  1353.38        2500.00       0.409465E-004
  1350.88        2500.00       0.382243E-004
  1348.37        2500.00       0.356930E-004
  1345.86        2500.00       0.334488E-004
  1343.36        2500.00       0.312976E-004
  1340.85        2500.00       0.293394E-004
  1338.35        2500.00       0.275835E-004
  1335.84        2500.00       0.259013E-004
  1333.33        2500.00       0.243747E-004
  1330.83        2500.00       0.229669E-004
  1328.32        2500.00       0.216598E-004
  1325.81        2500.00       0.204280E-004
  1323.31        2500.00       0.192983E-004
  1320.80        2500.00       0.182414E-004
  1318.30        2500.00       0.172456E-004
  1315.79        2500.00       0.163348E-004
  1313.28        2500.00       0.154332E-004
  1310.78        2500.00       0.146318E-004
  1308.27        2500.00       0.138776E-004
  1305.76        2500.00       0.131577E-004
  1303.26        2500.00       0.124725E-004
  1300.75        2500.00       0.118396E-004
  1298.25        2500.00       0.112460E-004
  1295.74        2500.00       0.106764E-004
  1293.23        2500.00       0.101319E-004
  1290.73        2500.00       0.962221E-005
  1288.22        2500.00       0.913321E-005
  1285.71        2500.00       0.867831E-005
  1283.21        2500.00       0.824018E-005
  1280.70        2500.00       0.128492E-004
  1278.20        2500.00       0.154839E-004
  1275.69        2500.00       0.136398E-004
  1273.18        2500.00       0.127044E-004
  1270.68        2500.00       0.789520E-005
  1268.17        2500.00       0.876697E-005
  1265.66        2500.00       0.616423E-005
  1263.16        2500.00       0.896609E-005
  1260.65        2500.00       0.339110E-005
  1258.15        2500.00       0.495725E-005
  1255.64        2500.00       0.559290E-005
  1253.13        2500.00       0.274484E-005
  1250.63        2500.00       0.372705E-005
  1248.12        2500.00       0.337362E-005
  1245.61        2500.00       0.299324E-005
  1243.11        2500.00       0.848818E-005
  1240.60        2500.00       0.207804E-004
  1238.10        2500.00       0.127110E-004
  1235.59        2500.00       0.882441E-005
  1233.08        2500.00       0.704450E-005
  1230.58        2500.00       0.380305E-005
  1228.07        2500.00       0.380320E-005
  1225.56        2500.00       0.420383E-005
  1223.06        2500.00       0.101548E-004
  1220.55        2500.00       0.100786E-004
  1218.05        2500.00       0.954863E-005
  1215.54        2500.00       0.101029E-004
  1213.03        2500.00       0.836290E-005
  1210.53        2500.00       0.101260E-004
  1208.02        2500.00       0.101350E-004
  1205.51        2500.00       0.896483E-005
  1203.01        2500.00       0.918995E-005
  1200.50        2500.00       0.102158E-004
  1197.99        2500.00       0.102949E-004
  1195.49        2500.00       0.102817E-004
  1192.98        2500.00       0.102839E-004
  1190.48        2500.00       0.102460E-004
  1187.97        2500.00       0.102649E-004
  1185.46        2500.00       0.102581E-004
  1182.96        2500.00       0.102734E-004
  1180.45        2500.00       0.103815E-004
  1177.94        2500.00       0.103778E-004
  1175.44        2500.00       0.103739E-004
  1172.93        2500.00       0.103696E-004
  1170.43        2500.00       0.103740E-004
  1167.92        2500.00       0.103128E-004
  1165.41        2500.00       0.103147E-004
  1162.91        2500.00       0.103469E-004
  1160.40        2500.00       0.103191E-004
  1157.89        2500.00       0.104000E-004
  1155.39        2500.00       0.104268E-004
  1152.88        2500.00       0.105264E-004
  1150.38        2500.00       0.104809E-004
  1147.87        2500.00       0.105085E-004
  1145.36        2500.00       0.105365E-004
  1142.86        2500.00       0.104063E-004
  1140.35        2500.00       0.104015E-004
  1137.84        2500.00       0.104207E-004
  1135.34        2500.00       0.104295E-004
  1132.83        2500.00       0.104911E-004
  1130.33        2500.00       0.104389E-004
  1127.82        2500.00       0.105339E-004
  1125.31        2500.00       0.105298E-004
  1122.81        2500.00       0.105257E-004
  1120.30        2500.00       0.105214E-004
  1117.79        2500.00       0.104798E-004
  1115.29        2500.00       0.103808E-004
  1112.78        2500.00       0.104342E-004
  1110.28        2500.00       0.104951E-004
  1107.77        2500.00       0.103964E-004
  1105.26        2500.00       0.103455E-004
  1102.76        2500.00       0.102849E-004
  1100.25        2500.00       0.102097E-004
  1097.74        2500.00       0.101259E-004
  1095.24        2500.00       0.996890E-005
  1092.73        2500.00       0.965050E-005
  1090.23        2500.00       0.956436E-005
  1087.72        2500.00       0.935087E-005
  1085.21        2500.00       0.913140E-005
  1082.71        2500.00       0.890982E-005
  1080.20        2500.00       0.867799E-005
  1077.69        2500.00       0.823378E-005
  1075.19        2500.00       0.819782E-005
  1072.68        2500.00       0.793738E-005
  1070.18        2500.00       0.766666E-005
  1067.67        2500.00       0.733338E-005
  1065.16        2500.00       0.701175E-005
  1062.66        2500.00       0.691534E-005
  1060.15        2500.00       0.640933E-005
  1057.64        2500.00       0.606201E-005
  1055.14        2500.00       0.570389E-005
  1052.63        2500.00       0.534262E-005
  1050.13        2500.00       0.490143E-005
  1047.62        2500.00       0.452506E-005
  1045.11        2500.00       0.725506E-005
  1042.61        2500.00       0.368195E-006
  1040.10        2500.00                 NaN
  1037.59        2500.00       0.772526E-005
  1035.09        2500.00                 NaN
  1032.58        2500.00                 NaN
  1030.08        2500.00                 NaN
  1027.57        2500.00                 NaN
  1025.06        2500.00                 NaN
  1022.56        2500.00                 NaN
  1020.05        2500.00                 NaN
  1017.54        2500.00                 NaN
  1015.04        2500.00                 NaN
  1012.53        2500.00                 NaN
  1010.03        2500.00       0.415190E-005
  1007.52        2500.00                 NaN
  1005.01        2500.00                 NaN
  1002.51        2500.00                 NaN
  1000.00        2500.00                 NaN
