|6.6.6
Archiving\03_Data\eqfrac/QFM_m0.25/EETA/EETA_4.tab                        
           1
T(K)    
  0.000000000000000E+000
  0.000000000000000E+000
           0
           3
T(K)           P(bar)         Sp(TH),m3     
  1448.72        2500.00                 NaN
  1447.60        2500.00                 NaN
  1446.47        2500.00                 NaN
  1445.35        2500.00                 NaN
  1444.22        2500.00                 NaN
  1443.10        2500.00                 NaN
  1441.97        2500.00                 NaN
  1440.85        2500.00                 NaN
  1439.72        2500.00       0.204003E-005
  1438.60        2500.00       0.123353E-004
  1437.47        2500.00                 NaN
  1436.35        2500.00       0.638095E-007
  1435.22        2500.00       0.616310E-005
  1434.10        2500.00       0.165829E-005
  1432.98        2500.00       0.975328E-005
  1431.85        2500.00       0.537326E-005
  1430.73        2500.00       0.521105E-005
  1429.60        2500.00       0.496476E-005
  1428.48        2500.00       0.474300E-005
  1427.35        2500.00       0.459674E-005
  1426.23        2500.00       0.455662E-005
  1425.10        2500.00       0.406661E-005
  1423.98        2500.00       0.411566E-005
  1422.85        2500.00       0.591777E-005
  1421.73        2500.00       0.320863E-006
  1420.60        2500.00       0.335749E-005
  1419.48        2500.00       0.355751E-005
  1418.36        2500.00       0.334519E-005
  1417.23        2500.00       0.317812E-005
  1416.11        2500.00       0.298877E-005
  1414.98        2500.00       0.292388E-005
  1413.86        2500.00       0.282914E-005
  1412.73        2500.00       0.269086E-005
  1411.61        2500.00       0.278893E-005
  1410.48        2500.00       0.748024E-006
  1409.36        2500.00       0.449902E-005
  1408.23        2500.00                 NaN
  1407.11        2500.00                 NaN
  1405.98        2500.00       0.311804E-007
  1404.86        2500.00                 NaN
  1403.74        2500.00                 NaN
  1402.61        2500.00       0.163486E-005
  1401.49        2500.00                 NaN
  1400.36        2500.00                 NaN
  1399.24        2500.00                 NaN
  1398.11        2500.00                 NaN
  1396.99        2500.00                 NaN
  1395.86        2500.00       0.860702E-004
  1394.74        2500.00                 NaN
  1393.61        2500.00                 NaN
  1392.49        2500.00                 NaN
  1391.36        2500.00                 NaN
  1390.24        2500.00                 NaN
  1389.12        2500.00                 NaN
  1387.99        2500.00                 NaN
  1386.87        2500.00                 NaN
  1385.74        2500.00                 NaN
  1384.62        2500.00                 NaN
  1383.49        2500.00                 NaN
  1382.37        2500.00                 NaN
  1381.24        2500.00                 NaN
  1380.12        2500.00                 NaN
  1378.99        2500.00                 NaN
  1377.87        2500.00                 NaN
  1376.74        2500.00                 NaN
  1375.62        2500.00                 NaN
  1374.50        2500.00                 NaN
  1373.37        2500.00                 NaN
  1372.25        2500.00                 NaN
  1371.12        2500.00                 NaN
  1370.00        2500.00                 NaN
  1368.87        2500.00                 NaN
  1367.75        2500.00                 NaN
  1366.62        2500.00                 NaN
  1365.50        2500.00                 NaN
  1364.37        2500.00                 NaN
  1363.25        2500.00                 NaN
  1362.12        2500.00                 NaN
  1361.00        2500.00                 NaN
  1359.88        2500.00                 NaN
  1358.75        2500.00                 NaN
  1357.63        2500.00                 NaN
  1356.50        2500.00                 NaN
  1355.38        2500.00       0.179372E-005
  1354.25        2500.00       0.308955E-003
  1353.13        2500.00       0.380470E-003
  1352.00        2500.00       0.487734E-003
  1350.88        2500.00       0.523312E-003
  1349.75        2500.00       0.562893E-003
  1348.63        2500.00       0.592859E-003
  1347.50        2500.00       0.600954E-003
  1346.38        2500.00       0.612708E-003
  1345.26        2500.00       0.610515E-003
  1344.13        2500.00       0.606380E-003
  1343.01        2500.00       0.597397E-003
  1341.88        2500.00       0.586876E-003
  1340.76        2500.00       0.577848E-003
  1339.63        2500.00       0.567276E-003
  1338.51        2500.00       0.554725E-003
  1337.38        2500.00       0.545186E-003
  1336.26        2500.00       0.532544E-003
  1335.13        2500.00       0.522667E-003
  1334.01        2500.00       0.508485E-003
  1332.89        2500.00       0.498694E-003
  1331.76        2500.00       0.487554E-003
  1330.64        2500.00       0.476154E-003
  1329.51        2500.00       0.466072E-003
  1328.39        2500.00       0.454955E-003
  1327.26        2500.00       0.445633E-003
  1326.14        2500.00       0.435321E-003
  1325.01        2500.00       0.425460E-003
  1323.89        2500.00       0.416143E-003
  1322.76        2500.00       0.406989E-003
  1321.64        2500.00       0.397905E-003
  1320.51        2500.00       0.388664E-003
  1319.39        2500.00       0.380364E-003
  1318.27        2500.00       0.372105E-003
  1317.14        2500.00       0.363881E-003
  1316.02        2500.00       0.355654E-003
  1314.89        2500.00       0.347759E-003
  1313.77        2500.00       0.340222E-003
  1312.64        2500.00       0.332595E-003
  1311.52        2500.00       0.325487E-003
  1310.39        2500.00       0.318398E-003
  1309.27        2500.00       0.311529E-003
  1308.14        2500.00       0.304105E-003
  1307.02        2500.00       0.297969E-003
  1305.89        2500.00       0.291076E-003
  1304.77        2500.00       0.285225E-003
  1303.65        2500.00       0.278952E-003
  1302.52        2500.00       0.272706E-003
  1301.40        2500.00       0.267045E-003
  1300.27        2500.00       0.260848E-003
  1299.15        2500.00       0.255637E-003
  1298.02        2500.00       0.249923E-003
  1296.90        2500.00       0.415303E-002
  1295.77        2500.00       0.333687E-002
  1294.65        2500.00       0.193938E-002
  1293.52        2500.00       0.125654E-002
  1292.40        2500.00       0.877103E-003
  1291.27        2500.00       0.644431E-003
  1290.15        2500.00       0.563050E-003
  1289.03        2500.00       0.372813E-003
  1287.90        2500.00       0.295947E-003
  1286.78        2500.00       0.250838E-003
  1285.65        2500.00       0.114820E-003
  1284.53        2500.00       0.177034E-003
  1283.40        2500.00       0.278664E-003
  1282.28        2500.00       0.247869E-004
  1281.15        2500.00       0.117148E-003
  1280.03        2500.00       0.284994E-004
  1278.90        2500.00       0.322502E-003
  1277.78        2500.00       0.308598E-004
  1276.65        2500.00       0.152386E-004
  1275.53        2500.00       0.148043E-004
  1274.41        2500.00       0.127698E-003
  1273.28        2500.00       0.624825E-004
  1272.16        2500.00       0.155996E-004
  1271.03        2500.00       0.169322E-004
  1269.91        2500.00       0.496076E-004
  1268.78        2500.00       0.687369E-004
  1267.66        2500.00                 NaN
  1266.53        2500.00                 NaN
  1265.41        2500.00                 NaN
  1264.28        2500.00       0.361263E-004
  1263.16        2500.00       0.164437E-004
  1262.03        2500.00                 NaN
  1260.91        2500.00       0.382166E-008
  1259.79        2500.00       0.516776E-004
  1258.66        2500.00                 NaN
  1257.54        2500.00                 NaN
  1256.41        2500.00       0.669625E-004
  1255.29        2500.00                 NaN
  1254.16        2500.00                 NaN
  1253.04        2500.00                 NaN
  1251.91        2500.00                 NaN
  1250.79        2500.00       0.140355E-004
  1249.66        2500.00                 NaN
  1248.54        2500.00       0.213686E-004
  1247.41        2500.00       0.123583E-004
  1246.29        2500.00                 NaN
  1245.17        2500.00                 NaN
  1244.04        2500.00                 NaN
  1242.92        2500.00                 NaN
  1241.79        2500.00       0.109143E-005
  1240.67        2500.00       0.128660E-005
  1239.54        2500.00       0.296523E-004
  1238.42        2500.00                 NaN
  1237.29        2500.00                 NaN
  1236.17        2500.00                 NaN
  1235.04        2500.00       0.380827E-009
  1233.92        2500.00                 NaN
  1232.79        2500.00       0.448024E-005
  1231.67        2500.00                 NaN
  1230.55        2500.00       0.519002E-005
  1229.42        2500.00       0.196176E-004
  1228.30        2500.00       0.516472E-004
  1227.17        2500.00       0.266504E-005
  1226.05        2500.00       0.849061E-005
  1224.92        2500.00       0.107844E-003
  1223.80        2500.00       0.224200E-003
  1222.67        2500.00       0.224280E-003
  1221.55        2500.00       0.224411E-003
  1220.42        2500.00       0.225011E-003
  1219.30        2500.00       0.224519E-003
  1218.17        2500.00       0.224646E-003
  1217.05        2500.00       0.224720E-003
  1215.93        2500.00       0.224903E-003
  1214.80        2500.00       0.225043E-003
  1213.68        2500.00       0.225068E-003
  1212.55        2500.00       0.224978E-003
  1211.43        2500.00       0.225050E-003
  1210.30        2500.00       0.225138E-003
  1209.18        2500.00       0.225297E-003
  1208.05        2500.00       0.225264E-003
  1206.93        2500.00       0.225396E-003
  1205.80        2500.00       0.225472E-003
  1204.68        2500.00       0.225552E-003
  1203.55        2500.00       0.225625E-003
  1202.43        2500.00       0.225642E-003
  1201.31        2500.00       0.225859E-003
  1200.18        2500.00       0.224789E-003
  1199.06        2500.00       0.224408E-003
  1197.93        2500.00       0.225644E-003
  1196.81        2500.00       0.225911E-003
  1195.68        2500.00       0.226314E-003
  1194.56        2500.00       0.223887E-003
  1193.43        2500.00       0.224127E-003
  1192.31        2500.00       0.224346E-003
  1191.18        2500.00       0.226073E-003
  1190.06        2500.00       0.226433E-003
  1188.93        2500.00       0.226528E-003
  1187.81        2500.00       0.225916E-003
  1186.69        2500.00       0.225903E-003
  1185.56        2500.00       0.225123E-003
  1184.44        2500.00       0.225111E-003
  1183.31        2500.00       0.225099E-003
  1182.19        2500.00       0.225086E-003
  1181.06        2500.00       0.223776E-003
  1179.94        2500.00       0.222404E-003
  1178.81        2500.00       0.221525E-003
  1177.69        2500.00       0.219061E-003
  1176.56        2500.00       0.218193E-003
  1175.44        2500.00       0.215675E-003
  1174.31        2500.00       0.213966E-003
  1173.19        2500.00       0.212247E-003
  1172.07        2500.00       0.210517E-003
  1170.94        2500.00       0.208775E-003
  1169.82        2500.00       0.207022E-003
  1168.69        2500.00       0.206316E-003
  1167.57        2500.00       0.204572E-003
  1166.44        2500.00       0.202756E-003
  1165.32        2500.00       0.200932E-003
  1164.19        2500.00       0.199128E-003
  1163.07        2500.00       0.197368E-003
  1161.94        2500.00       0.195601E-003
  1160.82        2500.00       0.193846E-003
  1159.69        2500.00       0.190688E-003
  1158.57        2500.00       0.190335E-003
  1157.45        2500.00       0.188579E-003
  1156.32        2500.00       0.186779E-003
  1155.20        2500.00       0.184881E-003
  1154.07        2500.00       0.182881E-003
  1152.95        2500.00       0.180876E-003
  1151.82        2500.00       0.178892E-003
  1150.70        2500.00       0.176950E-003
  1149.57        2500.00       0.174996E-003
  1148.45        2500.00       0.173030E-003
  1147.32        2500.00       0.171052E-003
  1146.20        2500.00       0.169078E-003
  1145.07        2500.00       0.167095E-003
  1143.95        2500.00       0.164897E-003
  1142.83        2500.00       0.162683E-003
  1141.70        2500.00       0.160501E-003
  1140.58        2500.00       0.158312E-003
  1139.45        2500.00       0.156108E-003
  1138.33        2500.00       0.153887E-003
  1137.20        2500.00       0.151701E-003
  1136.08        2500.00       0.149507E-003
  1134.95        2500.00       0.147297E-003
  1133.83        2500.00       0.142773E-003
  1132.70        2500.00       0.141908E-003
  1131.58        2500.00       0.139270E-003
  1130.45        2500.00       0.136606E-003
  1129.33        2500.00       0.133918E-003
  1128.21        2500.00       0.131203E-003
  1127.08        2500.00       0.128463E-003
  1125.96        2500.00       0.125849E-003
  1124.83        2500.00       0.123240E-003
  1123.71        2500.00       0.120681E-003
  1122.58        2500.00       0.118914E-003
  1121.46        2500.00       0.115482E-003
  1120.33        2500.00       0.112396E-003
  1119.21        2500.00       0.110136E-003
  1118.08        2500.00       0.107482E-003
  1116.96        2500.00       0.104738E-003
  1115.83        2500.00       0.101716E-003
  1114.71        2500.00       0.987274E-004
  1113.59        2500.00       0.966299E-004
  1112.46        2500.00       0.966247E-004
  1111.34        2500.00       0.891316E-004
  1110.21        2500.00       0.859861E-004
  1109.09        2500.00       0.828070E-004
  1107.96        2500.00       0.795011E-004
  1106.84        2500.00       0.761933E-004
  1105.71        2500.00       0.727780E-004
  1104.59        2500.00       0.694695E-004
  1103.46        2500.00       0.686787E-004
  1102.34        2500.00       0.651838E-004
  1101.22        2500.00       0.587688E-004
  1100.09        2500.00       0.577999E-004
  1098.97        2500.00       0.512589E-004
  1097.84        2500.00       0.473962E-004
  1096.72        2500.00       0.461792E-004
  1095.59        2500.00       0.417747E-004
  1094.47        2500.00       0.375551E-004
  1093.34        2500.00       0.334849E-004
  1092.22        2500.00       0.294712E-004
  1091.09        2500.00       0.255833E-004
  1089.97        2500.00       0.246011E-004
  1088.84        2500.00       0.231503E-004
  1087.72        2500.00       0.181753E-004
  1086.60        2500.00       0.166529E-004
  1085.47        2500.00       0.150637E-004
  1084.35        2500.00       0.134698E-004
  1083.22        2500.00                 NaN
  1082.10        2500.00                 NaN
  1080.97        2500.00                 NaN
  1079.85        2500.00                 NaN
  1078.72        2500.00                 NaN
  1077.60        2500.00                 NaN
  1076.47        2500.00                 NaN
  1075.35        2500.00                 NaN
  1074.22        2500.00                 NaN
  1073.10        2500.00                 NaN
  1071.98        2500.00                 NaN
  1070.85        2500.00                 NaN
  1069.73        2500.00                 NaN
  1068.60        2500.00                 NaN
  1067.48        2500.00                 NaN
  1066.35        2500.00                 NaN
  1065.23        2500.00                 NaN
  1064.10        2500.00                 NaN
  1062.98        2500.00                 NaN
  1061.85        2500.00                 NaN
  1060.73        2500.00                 NaN
  1059.60        2500.00                 NaN
  1058.48        2500.00                 NaN
  1057.36        2500.00                 NaN
  1056.23        2500.00                 NaN
  1055.11        2500.00                 NaN
  1053.98        2500.00                 NaN
  1052.86        2500.00                 NaN
  1051.73        2500.00                 NaN
  1050.61        2500.00                 NaN
  1049.48        2500.00                 NaN
  1048.36        2500.00                 NaN
  1047.23        2500.00                 NaN
  1046.11        2500.00                 NaN
  1044.98        2500.00                 NaN
  1043.86        2500.00                 NaN
  1042.74        2500.00                 NaN
  1041.61        2500.00                 NaN
  1040.49        2500.00                 NaN
  1039.36        2500.00                 NaN
  1038.24        2500.00                 NaN
  1037.11        2500.00                 NaN
  1035.99        2500.00                 NaN
  1034.86        2500.00                 NaN
  1033.74        2500.00                 NaN
  1032.61        2500.00                 NaN
  1031.49        2500.00                 NaN
  1030.36        2500.00                 NaN
  1029.24        2500.00                 NaN
  1028.12        2500.00                 NaN
  1026.99        2500.00                 NaN
  1025.87        2500.00                 NaN
  1024.74        2500.00                 NaN
  1023.62        2500.00                 NaN
  1022.49        2500.00                 NaN
  1021.37        2500.00                 NaN
  1020.24        2500.00                 NaN
  1019.12        2500.00                 NaN
  1017.99        2500.00                 NaN
  1016.87        2500.00                 NaN
  1015.74        2500.00                 NaN
  1014.62        2500.00                 NaN
  1013.50        2500.00                 NaN
  1012.37        2500.00                 NaN
  1011.25        2500.00                 NaN
  1010.12        2500.00                 NaN
  1009.00        2500.00                 NaN
  1007.87        2500.00                 NaN
  1006.75        2500.00                 NaN
  1005.62        2500.00                 NaN
  1004.50        2500.00                 NaN
  1003.37        2500.00                 NaN
  1002.25        2500.00                 NaN
  1001.12        2500.00                 NaN
  1000.00        2500.00                 NaN
