|6.6.6
Archiving\03_Data\eqfrac/QFM_m3.5/KHA22/KHA22_6.tab                       
           1
T(K)    
  0.000000000000000E+000
  0.000000000000000E+000
           0
           3
T(K)           P(bar)         rho,kg/m3     
  1589.74        2500.00        3346.02     
  1588.26        2500.00        3216.80     
  1586.78        2500.00        3223.64     
  1585.31        2500.00        3224.58     
  1583.83        2500.00        3224.30     
  1582.35        2500.00        3224.86     
  1580.87        2500.00        3225.62     
  1579.39        2500.00        3225.58     
  1577.92        2500.00        3226.21     
  1576.44        2500.00        3226.10     
  1574.96        2500.00        3226.69     
  1573.48        2500.00        3226.55     
  1572.00        2500.00        3227.08     
  1570.53        2500.00        3226.54     
  1569.05        2500.00        3228.30     
  1567.57        2500.00        3228.87     
  1566.09        2500.00        3228.36     
  1564.61        2500.00        3228.86     
  1563.14        2500.00        3229.26     
  1561.66        2500.00        3229.36     
  1560.18        2500.00        3230.21     
  1558.70        2500.00        3230.28     
  1557.22        2500.00        3229.75     
  1555.74        2500.00        3231.13     
  1554.27        2500.00        3231.18     
  1552.79        2500.00        3232.11     
  1551.31        2500.00        3232.61     
  1549.83        2500.00        3232.60     
  1548.35        2500.00        3232.80     
  1546.88        2500.00        3229.94     
  1545.40        2500.00        3232.81     
  1543.92        2500.00        3235.60     
  1542.44        2500.00        3233.69     
  1540.96        2500.00        3234.57     
  1539.49        2500.00        3234.78     
  1538.01        2500.00        3234.44     
  1536.53        2500.00        3235.62     
  1535.05        2500.00        3235.29     
  1533.57        2500.00        3233.83     
  1532.10        2500.00        3236.95     
  1530.62        2500.00        3235.03     
  1529.14        2500.00        3236.99     
  1527.66        2500.00        3236.27     
  1526.18        2500.00        3237.20     
  1524.71        2500.00        3237.84     
  1523.23        2500.00        3238.51     
  1521.75        2500.00        3238.07     
  1520.27        2500.00        3238.72     
  1518.79        2500.00        3235.49     
  1517.32        2500.00        3240.17     
  1515.84        2500.00        3240.68     
  1514.36        2500.00        3239.33     
  1512.88        2500.00        3239.74     
  1511.40        2500.00        3240.72     
  1509.93        2500.00        3240.50     
  1508.45        2500.00        3241.00     
  1506.97        2500.00        3245.53     
  1505.49        2500.00        3221.96     
  1504.01        2500.00        3224.13     
  1502.54        2500.00        2758.11     
  1501.06        2500.00        3224.46     
  1499.58        2500.00        3226.67     
  1498.10        2500.00        3222.97     
  1496.62        2500.00        3225.54     
  1495.15        2500.00        3224.34     
  1493.67        2500.00        3225.36     
  1492.19        2500.00        3228.84     
  1490.71        2500.00        3226.26     
  1489.23        2500.00        3227.29     
  1487.75        2500.00        3227.94     
  1486.28        2500.00        3228.63     
  1484.80        2500.00        3229.55     
  1483.32        2500.00        3230.40     
  1481.84        2500.00        3223.95     
  1480.36        2500.00        3225.11     
  1478.89        2500.00        3225.91     
  1477.41        2500.00        3226.92     
  1475.93        2500.00        3227.32     
  1474.45        2500.00        3228.41     
  1472.97        2500.00        3229.39     
  1471.50        2500.00        3230.19     
  1470.02        2500.00        3230.93     
  1468.54        2500.00        3241.68     
  1467.06        2500.00        3232.30     
  1465.58        2500.00        3235.13     
  1464.11        2500.00        3239.68     
  1462.63        2500.00        3235.35     
  1461.15        2500.00        3236.21     
  1459.67        2500.00        3237.17     
  1458.19        2500.00        3238.07     
  1456.72        2500.00        3238.66     
  1455.24        2500.00        3239.97     
  1453.76        2500.00        3240.71     
  1452.28        2500.00        3241.73     
  1450.80        2500.00        3242.03     
  1449.33        2500.00        3243.53     
  1447.85        2500.00        3244.41     
  1446.37        2500.00        3245.08     
  1444.89        2500.00        3246.27     
  1443.41        2500.00        3247.17     
  1441.94        2500.00        3248.01     
  1440.46        2500.00        3248.86     
  1438.98        2500.00        3249.95     
  1437.50        2500.00        3250.89     
  1436.02        2500.00        3251.67     
  1434.55        2500.00        3139.29     
  1433.07        2500.00        3078.00     
  1431.59        2500.00        3078.78     
  1430.11        2500.00        3079.63     
  1428.63        2500.00        3080.63     
  1427.16        2500.00        3081.66     
  1425.68        2500.00        3082.57     
  1424.20        2500.00        3083.35     
  1422.72        2500.00        3085.03     
  1421.24        2500.00        3087.75     
  1419.76        2500.00        3088.83     
  1418.29        2500.00        3089.63     
  1416.81        2500.00        3090.65     
  1415.33        2500.00        3091.26     
  1413.85        2500.00        3092.84     
  1412.37        2500.00        3093.96     
  1410.90        2500.00        3095.03     
  1409.42        2500.00        3095.91     
  1407.94        2500.00        3096.80     
  1406.46        2500.00        3097.89     
  1404.98        2500.00        3099.25     
  1403.51        2500.00        3100.03     
  1402.03        2500.00        3101.07     
  1400.55        2500.00        3102.21     
  1399.07        2500.00        3103.10     
  1397.59        2500.00        3104.38     
  1396.12        2500.00        3105.53     
  1394.64        2500.00        3106.34     
  1393.16        2500.00        3107.43     
  1391.68        2500.00        3108.57     
  1390.20        2500.00        3109.62     
  1388.73        2500.00        3110.41     
  1387.25        2500.00        3111.72     
  1385.77        2500.00        3112.90     
  1384.29        2500.00        3114.17     
  1382.81        2500.00        3114.97     
  1381.34        2500.00        3116.01     
  1379.86        2500.00        3117.00     
  1378.38        2500.00        3118.02     
  1376.90        2500.00        3119.24     
  1375.42        2500.00        3120.24     
  1373.95        2500.00        3121.25     
  1372.47        2500.00        3122.35     
  1370.99        2500.00        3123.12     
  1369.51        2500.00        3124.61     
  1368.03        2500.00        3125.77     
  1366.56        2500.00        3153.58     
  1365.08        2500.00        3120.52     
  1363.60        2500.00        3128.55     
  1362.12        2500.00        3129.62     
  1360.64        2500.00        3130.82     
  1359.16        2500.00        3131.76     
  1357.69        2500.00        3132.80     
  1356.21        2500.00        3133.99     
  1354.73        2500.00        3134.98     
  1353.25        2500.00        3136.02     
  1351.77        2500.00        3136.76     
  1350.30        2500.00        3138.19     
  1348.82        2500.00        3138.61     
  1347.34        2500.00        3140.19     
  1345.86        2500.00        3141.08     
  1344.38        2500.00        3142.01     
  1342.91        2500.00        3143.21     
  1341.43        2500.00        3144.18     
  1339.95        2500.00        3145.21     
  1338.47        2500.00        3146.30     
  1336.99        2500.00        3147.19     
  1335.52        2500.00        3148.29     
  1334.04        2500.00        3148.40     
  1332.56        2500.00        3150.22     
  1331.08        2500.00        3150.96     
  1329.60        2500.00        3151.97     
  1328.13        2500.00        3152.86     
  1326.65        2500.00        3154.03     
  1325.17        2500.00        3154.74     
  1323.69        2500.00        3155.64     
  1322.21        2500.00        3156.48     
  1320.74        2500.00        3156.25     
  1319.26        2500.00        2773.64     
  1317.78        2500.00        2745.56     
  1316.30        2500.00        2747.08     
  1314.82        2500.00        2749.17     
  1313.35        2500.00        2751.00     
  1311.87        2500.00        2752.99     
  1310.39        2500.00        2754.86     
  1308.91        2500.00        2756.65     
  1307.43        2500.00        2758.64     
  1305.96        2500.00        2760.10     
  1304.48        2500.00        2762.27     
  1303.00        2500.00        2764.17     
  1301.52        2500.00        2766.07     
  1300.04        2500.00        2767.98     
  1298.57        2500.00        2769.91     
  1297.09        2500.00        2771.81     
  1295.61        2500.00        2773.81     
  1294.13        2500.00        2776.05     
  1292.65        2500.00        2777.99     
  1291.17        2500.00        2780.17     
  1289.70        2500.00        2793.88     
  1288.22        2500.00        2810.82     
  1286.74        2500.00        2812.06     
  1285.26        2500.00        2813.34     
  1283.78        2500.00        2814.60     
  1282.31        2500.00        2815.88     
  1280.83        2500.00        2815.89     
  1279.35        2500.00        2788.00     
  1277.87        2500.00        3046.08     
  1276.39        2500.00        2757.54     
  1274.92        2500.00        2848.13     
  1273.44        2500.00        2879.87     
  1271.96        2500.00        2906.15     
  1270.48        2500.00        2804.03     
  1269.00        2500.00        2815.50     
  1267.53        2500.00        2799.96     
  1266.05        2500.00        2772.39     
  1264.57        2500.00        2779.92     
  1263.09        2500.00        2767.56     
  1261.61        2500.00        2777.42     
  1260.14        2500.00        2667.73     
  1258.66        2500.00        2755.19     
  1257.18        2500.00        2779.00     
  1255.70        2500.00        2741.46     
  1254.22        2500.00        2718.56     
  1252.75        2500.00                 NaN
  1251.27        2500.00                 NaN
  1249.79        2500.00                 NaN
  1248.31        2500.00                 NaN
  1246.83        2500.00                 NaN
  1245.36        2500.00                 NaN
  1243.88        2500.00                 NaN
  1242.40        2500.00                 NaN
  1240.92        2500.00                 NaN
  1239.44        2500.00                 NaN
  1237.97        2500.00                 NaN
  1236.49        2500.00                 NaN
  1235.01        2500.00                 NaN
  1233.53        2500.00                 NaN
  1232.05        2500.00                 NaN
  1230.58        2500.00                 NaN
  1229.10        2500.00                 NaN
  1227.62        2500.00                 NaN
  1226.14        2500.00                 NaN
  1224.66        2500.00                 NaN
  1223.18        2500.00                 NaN
  1221.71        2500.00                 NaN
  1220.23        2500.00                 NaN
  1218.75        2500.00                 NaN
  1217.27        2500.00                 NaN
  1215.79        2500.00                 NaN
  1214.32        2500.00                 NaN
  1212.84        2500.00                 NaN
  1211.36        2500.00                 NaN
  1209.88        2500.00                 NaN
  1208.40        2500.00                 NaN
  1206.93        2500.00                 NaN
  1205.45        2500.00                 NaN
  1203.97        2500.00                 NaN
  1202.49        2500.00                 NaN
  1201.01        2500.00                 NaN
  1199.54        2500.00                 NaN
  1198.06        2500.00                 NaN
  1196.58        2500.00                 NaN
  1195.10        2500.00                 NaN
  1193.62        2500.00                 NaN
  1192.15        2500.00                 NaN
  1190.67        2500.00                 NaN
  1189.19        2500.00                 NaN
  1187.71        2500.00                 NaN
  1186.23        2500.00                 NaN
  1184.76        2500.00                 NaN
  1183.28        2500.00                 NaN
  1181.80        2500.00                 NaN
  1180.32        2500.00                 NaN
  1178.84        2500.00                 NaN
  1177.37        2500.00                 NaN
  1175.89        2500.00                 NaN
  1174.41        2500.00                 NaN
  1172.93        2500.00                 NaN
  1171.45        2500.00                 NaN
  1169.98        2500.00                 NaN
  1168.50        2500.00                 NaN
  1167.02        2500.00                 NaN
  1165.54        2500.00                 NaN
  1164.06        2500.00                 NaN
  1162.58        2500.00                 NaN
  1161.11        2500.00                 NaN
  1159.63        2500.00                 NaN
  1158.15        2500.00                 NaN
  1156.67        2500.00                 NaN
  1155.19        2500.00                 NaN
  1153.72        2500.00                 NaN
  1152.24        2500.00                 NaN
  1150.76        2500.00                 NaN
  1149.28        2500.00                 NaN
  1147.80        2500.00                 NaN
  1146.33        2500.00                 NaN
  1144.85        2500.00                 NaN
  1143.37        2500.00                 NaN
  1141.89        2500.00                 NaN
  1140.41        2500.00                 NaN
  1138.94        2500.00                 NaN
  1137.46        2500.00                 NaN
  1135.98        2500.00                 NaN
  1134.50        2500.00                 NaN
  1133.02        2500.00                 NaN
  1131.55        2500.00                 NaN
  1130.07        2500.00                 NaN
  1128.59        2500.00                 NaN
  1127.11        2500.00                 NaN
  1125.63        2500.00                 NaN
  1124.16        2500.00                 NaN
  1122.68        2500.00                 NaN
  1121.20        2500.00                 NaN
  1119.72        2500.00                 NaN
  1118.24        2500.00                 NaN
  1116.77        2500.00                 NaN
  1115.29        2500.00                 NaN
  1113.81        2500.00                 NaN
  1112.33        2500.00                 NaN
  1110.85        2500.00                 NaN
  1109.38        2500.00                 NaN
  1107.90        2500.00                 NaN
  1106.42        2500.00                 NaN
  1104.94        2500.00                 NaN
  1103.46        2500.00                 NaN
  1101.99        2500.00                 NaN
  1100.51        2500.00                 NaN
  1099.03        2500.00                 NaN
  1097.55        2500.00                 NaN
  1096.07        2500.00                 NaN
  1094.59        2500.00                 NaN
  1093.12        2500.00                 NaN
  1091.64        2500.00                 NaN
  1090.16        2500.00                 NaN
  1088.68        2500.00                 NaN
  1087.20        2500.00                 NaN
  1085.73        2500.00                 NaN
  1084.25        2500.00                 NaN
  1082.77        2500.00                 NaN
  1081.29        2500.00                 NaN
  1079.81        2500.00                 NaN
  1078.34        2500.00                 NaN
  1076.86        2500.00                 NaN
  1075.38        2500.00                 NaN
  1073.90        2500.00                 NaN
  1072.42        2500.00                 NaN
  1070.95        2500.00                 NaN
  1069.47        2500.00                 NaN
  1067.99        2500.00                 NaN
  1066.51        2500.00                 NaN
  1065.03        2500.00                 NaN
  1063.56        2500.00                 NaN
  1062.08        2500.00                 NaN
  1060.60        2500.00                 NaN
  1059.12        2500.00                 NaN
  1057.64        2500.00                 NaN
  1056.17        2500.00                 NaN
  1054.69        2500.00                 NaN
  1053.21        2500.00                 NaN
  1051.73        2500.00                 NaN
  1050.25        2500.00                 NaN
  1048.78        2500.00                 NaN
  1047.30        2500.00                 NaN
  1045.82        2500.00                 NaN
  1044.34        2500.00                 NaN
  1042.86        2500.00                 NaN
  1041.39        2500.00                 NaN
  1039.91        2500.00                 NaN
  1038.43        2500.00                 NaN
  1036.95        2500.00                 NaN
  1035.47        2500.00                 NaN
  1034.00        2500.00                 NaN
  1032.52        2500.00                 NaN
  1031.04        2500.00                 NaN
  1029.56        2500.00                 NaN
  1028.08        2500.00                 NaN
  1026.60        2500.00                 NaN
  1025.13        2500.00                 NaN
  1023.65        2500.00                 NaN
  1022.17        2500.00                 NaN
  1020.69        2500.00                 NaN
  1019.21        2500.00                 NaN
  1017.74        2500.00                 NaN
  1016.26        2500.00                 NaN
  1014.78        2500.00                 NaN
  1013.30        2500.00                 NaN
  1011.82        2500.00                 NaN
  1010.35        2500.00                 NaN
  1008.87        2500.00                 NaN
  1007.39        2500.00                 NaN
  1005.91        2500.00                 NaN
  1004.43        2500.00                 NaN
  1002.96        2500.00                 NaN
  1001.48        2500.00                 NaN
  1000.00        2500.00                 NaN
