|6.6.6
Archiving\03_Data\fracLP/QFM_m0.5/EETA/EETA_2.tab                         
           1
T(K)    
  0.000000000000000E+000
  0.000000000000000E+000
           0
           3
T(K)           P(bar)         Sp(TH),kg     
  2000.00        500.000                 NaN
  1997.49        500.000                 NaN
  1994.99        500.000                 NaN
  1992.48        500.000                 NaN
  1989.97        500.000                 NaN
  1987.47        500.000                 NaN
  1984.96        500.000                 NaN
  1982.46        500.000                 NaN
  1979.95        500.000                 NaN
  1977.44        500.000                 NaN
  1974.94        500.000                 NaN
  1972.43        500.000                 NaN
  1969.92        500.000                 NaN
  1967.42        500.000                 NaN
  1964.91        500.000                 NaN
  1962.41        500.000                 NaN
  1959.90        500.000                 NaN
  1957.39        500.000                 NaN
  1954.89        500.000                 NaN
  1952.38        500.000                 NaN
  1949.87        500.000                 NaN
  1947.37        500.000                 NaN
  1944.86        500.000                 NaN
  1942.36        500.000                 NaN
  1939.85        500.000                 NaN
  1937.34        500.000                 NaN
  1934.84        500.000                 NaN
  1932.33        500.000                 NaN
  1929.82        500.000                 NaN
  1927.32        500.000                 NaN
  1924.81        500.000                 NaN
  1922.31        500.000                 NaN
  1919.80        500.000                 NaN
  1917.29        500.000                 NaN
  1914.79        500.000                 NaN
  1912.28        500.000                 NaN
  1909.77        500.000                 NaN
  1907.27        500.000                 NaN
  1904.76        500.000                 NaN
  1902.26        500.000                 NaN
  1899.75        500.000                 NaN
  1897.24        500.000                 NaN
  1894.74        500.000                 NaN
  1892.23        500.000                 NaN
  1889.72        500.000                 NaN
  1887.22        500.000                 NaN
  1884.71        500.000                 NaN
  1882.21        500.000                 NaN
  1879.70        500.000                 NaN
  1877.19        500.000                 NaN
  1874.69        500.000                 NaN
  1872.18        500.000                 NaN
  1869.67        500.000                 NaN
  1867.17        500.000                 NaN
  1864.66        500.000                 NaN
  1862.16        500.000                 NaN
  1859.65        500.000                 NaN
  1857.14        500.000                 NaN
  1854.64        500.000                 NaN
  1852.13        500.000                 NaN
  1849.62        500.000                 NaN
  1847.12        500.000                 NaN
  1844.61        500.000                 NaN
  1842.11        500.000                 NaN
  1839.60        500.000                 NaN
  1837.09        500.000                 NaN
  1834.59        500.000                 NaN
  1832.08        500.000                 NaN
  1829.57        500.000                 NaN
  1827.07        500.000                 NaN
  1824.56        500.000                 NaN
  1822.06        500.000                 NaN
  1819.55        500.000                 NaN
  1817.04        500.000                 NaN
  1814.54        500.000                 NaN
  1812.03        500.000                 NaN
  1809.52        500.000                 NaN
  1807.02        500.000                 NaN
  1804.51        500.000                 NaN
  1802.01        500.000                 NaN
  1799.50        500.000                 NaN
  1796.99        500.000                 NaN
  1794.49        500.000                 NaN
  1791.98        500.000                 NaN
  1789.47        500.000                 NaN
  1786.97        500.000                 NaN
  1784.46        500.000                 NaN
  1781.95        500.000                 NaN
  1779.45        500.000                 NaN
  1776.94        500.000                 NaN
  1774.44        500.000                 NaN
  1771.93        500.000                 NaN
  1769.42        500.000                 NaN
  1766.92        500.000                 NaN
  1764.41        500.000                 NaN
  1761.90        500.000                 NaN
  1759.40        500.000                 NaN
  1756.89        500.000                 NaN
  1754.39        500.000                 NaN
  1751.88        500.000                 NaN
  1749.37        500.000                 NaN
  1746.87        500.000                 NaN
  1744.36        500.000                 NaN
  1741.85        500.000                 NaN
  1739.35        500.000                 NaN
  1736.84        500.000                 NaN
  1734.34        500.000                 NaN
  1731.83        500.000                 NaN
  1729.32        500.000                 NaN
  1726.82        500.000                 NaN
  1724.31        500.000                 NaN
  1721.80        500.000                 NaN
  1719.30        500.000                 NaN
  1716.79        500.000                 NaN
  1714.29        500.000                 NaN
  1711.78        500.000                 NaN
  1709.27        500.000                 NaN
  1706.77        500.000                 NaN
  1704.26        500.000                 NaN
  1701.75        500.000                 NaN
  1699.25        500.000                 NaN
  1696.74        500.000                 NaN
  1694.24        500.000                 NaN
  1691.73        500.000                 NaN
  1689.22        500.000                 NaN
  1686.72        500.000                 NaN
  1684.21        500.000                 NaN
  1681.70        500.000                 NaN
  1679.20        500.000                 NaN
  1676.69        500.000                 NaN
  1674.19        500.000                 NaN
  1671.68        500.000                 NaN
  1669.17        500.000                 NaN
  1666.67        500.000                 NaN
  1664.16        500.000                 NaN
  1661.65        500.000                 NaN
  1659.15        500.000                 NaN
  1656.64        500.000                 NaN
  1654.14        500.000                 NaN
  1651.63        500.000       0.288840E-006
  1649.12        500.000       0.134280E-004
  1646.62        500.000       0.134011E-004
  1644.11        500.000       0.132764E-004
  1641.60        500.000       0.131697E-004
  1639.10        500.000       0.131260E-004
  1636.59        500.000       0.128787E-004
  1634.09        500.000       0.128988E-004
  1631.58        500.000       0.126788E-004
  1629.07        500.000       0.126350E-004
  1626.57        500.000       0.125221E-004
  1624.06        500.000       0.123659E-004
  1621.55        500.000       0.122720E-004
  1619.05        500.000       0.121743E-004
  1616.54        500.000       0.120709E-004
  1614.04        500.000       0.119700E-004
  1611.53        500.000       0.138668E-004
  1609.02        500.000       0.973039E-005
  1606.52        500.000       0.116755E-004
  1604.01        500.000       0.115396E-004
  1601.50        500.000       0.114425E-004
  1599.00        500.000       0.113262E-004
  1596.49        500.000       0.112506E-004
  1593.98        500.000       0.111145E-004
  1591.48        500.000       0.114307E-004
  1588.97        500.000       0.113823E-004
  1586.47        500.000       0.112688E-004
  1583.96        500.000       0.111767E-004
  1581.45        500.000       0.110714E-004
  1578.95        500.000       0.108982E-004
  1576.44        500.000       0.108074E-004
  1573.93        500.000       0.107024E-004
  1571.43        500.000       0.105944E-004
  1568.92        500.000       0.173410E-004
  1566.42        500.000       0.348156E-005
  1563.91        500.000       0.103786E-004
  1561.40        500.000       0.997323E-005
  1558.90        500.000       0.100251E-004
  1556.39        500.000       0.986860E-005
  1553.88        500.000       0.976837E-005
  1551.38        500.000       0.966386E-005
  1548.87        500.000       0.957377E-005
  1546.37        500.000       0.950526E-005
  1543.86        500.000       0.680149E-005
  1541.35        500.000       0.116705E-004
  1538.85        500.000                 NaN
  1536.34        500.000                 NaN
  1533.83        500.000                 NaN
  1531.33        500.000                 NaN
  1528.82        500.000                 NaN
  1526.32        500.000                 NaN
  1523.81        500.000                 NaN
  1521.30        500.000                 NaN
  1518.80        500.000                 NaN
  1516.29        500.000                 NaN
  1513.78        500.000                 NaN
  1511.28        500.000                 NaN
  1508.77        500.000                 NaN
  1506.27        500.000                 NaN
  1503.76        500.000                 NaN
  1501.25        500.000                 NaN
  1498.75        500.000                 NaN
  1496.24        500.000                 NaN
  1493.73        500.000                 NaN
  1491.23        500.000                 NaN
  1488.72        500.000                 NaN
  1486.22        500.000                 NaN
  1483.71        500.000                 NaN
  1481.20        500.000                 NaN
  1478.70        500.000                 NaN
  1476.19        500.000                 NaN
  1473.68        500.000                 NaN
  1471.18        500.000                 NaN
  1468.67        500.000                 NaN
  1466.17        500.000                 NaN
  1463.66        500.000                 NaN
  1461.15        500.000                 NaN
  1458.65        500.000                 NaN
  1456.14        500.000                 NaN
  1453.63        500.000                 NaN
  1451.13        500.000                 NaN
  1448.62        500.000                 NaN
  1446.12        500.000                 NaN
  1443.61        500.000                 NaN
  1441.10        500.000                 NaN
  1438.60        500.000                 NaN
  1436.09        500.000                 NaN
  1433.58        500.000                 NaN
  1431.08        500.000                 NaN
  1428.57        500.000                 NaN
  1426.07        500.000                 NaN
  1423.56        500.000                 NaN
  1421.05        500.000                 NaN
  1418.55        500.000                 NaN
  1416.04        500.000                 NaN
  1413.53        500.000                 NaN
  1411.03        500.000                 NaN
  1408.52        500.000                 NaN
  1406.02        500.000                 NaN
  1403.51        500.000                 NaN
  1401.00        500.000                 NaN
  1398.50        500.000                 NaN
  1395.99        500.000                 NaN
  1393.48        500.000                 NaN
  1390.98        500.000                 NaN
  1388.47        500.000                 NaN
  1385.96        500.000                 NaN
  1383.46        500.000                 NaN
  1380.95        500.000                 NaN
  1378.45        500.000                 NaN
  1375.94        500.000                 NaN
  1373.43        500.000                 NaN
  1370.93        500.000                 NaN
  1368.42        500.000                 NaN
  1365.91        500.000                 NaN
  1363.41        500.000                 NaN
  1360.90        500.000                 NaN
  1358.40        500.000                 NaN
  1355.89        500.000                 NaN
  1353.38        500.000                 NaN
  1350.88        500.000                 NaN
  1348.37        500.000                 NaN
  1345.86        500.000                 NaN
  1343.36        500.000                 NaN
  1340.85        500.000                 NaN
  1338.35        500.000                 NaN
  1335.84        500.000                 NaN
  1333.33        500.000                 NaN
  1330.83        500.000                 NaN
  1328.32        500.000       0.187216E-004
  1325.81        500.000       0.494558E-004
  1323.31        500.000       0.556096E-004
  1320.80        500.000       0.572700E-004
  1318.30        500.000       0.568892E-004
  1315.79        500.000       0.550414E-004
  1313.28        500.000       0.531169E-004
  1310.78        500.000       0.513247E-004
  1308.27        500.000       0.492561E-004
  1305.76        500.000       0.471193E-004
  1303.26        500.000       0.450377E-004
  1300.75        500.000       0.430266E-004
  1298.25        500.000       0.411020E-004
  1295.74        500.000       0.392490E-004
  1293.23        500.000       0.375390E-004
  1290.73        500.000       0.359744E-004
  1288.22        500.000       0.342271E-004
  1285.71        500.000       0.328197E-004
  1283.21        500.000       0.313763E-004
  1280.70        500.000       0.300078E-004
  1278.20        500.000       0.287557E-004
  1275.69        500.000       0.275302E-004
  1273.18        500.000       0.263366E-004
  1270.68        500.000       0.252437E-004
  1268.17        500.000       0.241700E-004
  1265.66        500.000       0.231653E-004
  1263.16        500.000       0.221842E-004
  1260.65        500.000       0.783911E-004
  1258.15        500.000       0.730328E-004
  1255.64        500.000       0.589383E-004
  1253.13        500.000       0.487566E-004
  1250.63        500.000       0.410081E-004
  1248.12        500.000       0.350319E-004
  1245.61        500.000       0.302067E-004
  1243.11        500.000       0.263703E-004
  1240.60        500.000       0.231292E-004
  1238.10        500.000       0.203611E-004
  1235.59        500.000       0.180422E-004
  1233.08        500.000       0.160290E-004
  1230.58        500.000       0.142747E-004
  1228.07        500.000       0.127466E-004
  1225.56        500.000       0.113671E-004
  1223.06        500.000       0.101757E-004
  1220.55        500.000       0.912937E-005
  1218.05        500.000       0.818191E-005
  1215.54        500.000       0.736747E-005
  1213.03        500.000       0.658828E-005
  1210.53        500.000       0.589756E-005
  1208.02        500.000       0.353092E-004
  1205.51        500.000       0.533129E-004
  1203.01        500.000       0.529849E-005
  1200.50        500.000                 NaN
  1197.99        500.000                 NaN
  1195.49        500.000                 NaN
  1192.98        500.000       0.260525E-005
  1190.48        500.000       0.239707E-005
  1187.97        500.000       0.281066E-005
  1185.46        500.000       0.236223E-005
  1182.96        500.000       0.704363E-005
  1180.45        500.000       0.695665E-005
  1177.94        500.000       0.691998E-005
  1175.44        500.000       0.688145E-005
  1172.93        500.000       0.689117E-005
  1170.43        500.000       0.685333E-005
  1167.92        500.000       0.681546E-005
  1165.41        500.000       0.677881E-005
  1162.91        500.000       0.667183E-005
  1160.40        500.000       0.670199E-005
  1157.89        500.000       0.696376E-005
  1155.39        500.000       0.663720E-005
  1152.88        500.000       0.659849E-005
  1150.38        500.000       0.681828E-005
  1147.87        500.000       0.651462E-005
  1145.36        500.000       0.646539E-005
  1142.86        500.000       0.663607E-005
  1140.35        500.000                 NaN
  1137.84        500.000                 NaN
  1135.34        500.000                 NaN
  1132.83        500.000                 NaN
  1130.33        500.000                 NaN
  1127.82        500.000                 NaN
  1125.31        500.000                 NaN
  1122.81        500.000                 NaN
  1120.30        500.000                 NaN
  1117.79        500.000                 NaN
  1115.29        500.000                 NaN
  1112.78        500.000                 NaN
  1110.28        500.000                 NaN
  1107.77        500.000                 NaN
  1105.26        500.000                 NaN
  1102.76        500.000                 NaN
  1100.25        500.000                 NaN
  1097.74        500.000                 NaN
  1095.24        500.000                 NaN
  1092.73        500.000                 NaN
  1090.23        500.000                 NaN
  1087.72        500.000                 NaN
  1085.21        500.000                 NaN
  1082.71        500.000                 NaN
  1080.20        500.000                 NaN
  1077.69        500.000                 NaN
  1075.19        500.000                 NaN
  1072.68        500.000                 NaN
  1070.18        500.000                 NaN
  1067.67        500.000                 NaN
  1065.16        500.000                 NaN
  1062.66        500.000                 NaN
  1060.15        500.000                 NaN
  1057.64        500.000                 NaN
  1055.14        500.000                 NaN
  1052.63        500.000                 NaN
  1050.13        500.000                 NaN
  1047.62        500.000                 NaN
  1045.11        500.000                 NaN
  1042.61        500.000                 NaN
  1040.10        500.000                 NaN
  1037.59        500.000                 NaN
  1035.09        500.000                 NaN
  1032.58        500.000                 NaN
  1030.08        500.000                 NaN
  1027.57        500.000                 NaN
  1025.06        500.000                 NaN
  1022.56        500.000                 NaN
  1020.05        500.000                 NaN
  1017.54        500.000                 NaN
  1015.04        500.000                 NaN
  1012.53        500.000                 NaN
  1010.03        500.000                 NaN
  1007.52        500.000                 NaN
  1005.01        500.000                 NaN
  1002.51        500.000                 NaN
  1000.00        500.000                 NaN
