|6.6.6
Archiving\03_Data\frac/QFM_m1.5/KHA22/KHA22_6.tab                         
           1
T(K)    
  0.000000000000000E+000
  0.000000000000000E+000
           0
           3
T(K)           P(bar)         rho,kg/m3     
  2000.00        2500.00        5154.70     
  1997.49        2500.00        5155.46     
  1994.99        2500.00        5156.21     
  1992.48        2500.00        5156.95     
  1989.97        2500.00        5157.70     
  1987.47        2500.00        5158.45     
  1984.96        2500.00        5159.20     
  1982.46        2500.00        5159.95     
  1979.95        2500.00        5160.70     
  1977.44        2500.00        5161.44     
  1974.94        2500.00        5162.19     
  1972.43        2500.00        5162.94     
  1969.92        2500.00        5163.68     
  1967.42        2500.00        5164.43     
  1964.91        2500.00        5165.17     
  1962.41        2500.00        5165.92     
  1959.90        2500.00        5166.66     
  1957.39        2500.00        5167.40     
  1954.89        2500.00        5168.15     
  1952.38        2500.00        5168.89     
  1949.87        2500.00        5083.42     
  1947.37        2500.00        2896.41     
  1944.86        2500.00        2896.97     
  1942.36        2500.00        2897.52     
  1939.85        2500.00        2898.08     
  1937.34        2500.00        2898.64     
  1934.84        2500.00        2899.20     
  1932.33        2500.00        2899.76     
  1929.82        2500.00        2900.32     
  1927.32        2500.00        2900.88     
  1924.81        2500.00        3177.81     
  1922.31        2500.00        2901.42     
  1919.80        2500.00        2901.98     
  1917.29        2500.00        2902.53     
  1914.79        2500.00        2903.09     
  1912.28        2500.00        3137.84     
  1909.77        2500.00        3139.15     
  1907.27        2500.00        3140.44     
  1904.76        2500.00        3141.99     
  1902.26        2500.00        3143.36     
  1899.75        2500.00        3145.17     
  1897.24        2500.00        3146.04     
  1894.74        2500.00        3147.12     
  1892.23        2500.00        2904.63     
  1889.72        2500.00        3150.10     
  1887.22        2500.00        3152.21     
  1884.71        2500.00        3153.44     
  1882.21        2500.00        3159.34     
  1879.70        2500.00        3178.78     
  1877.19        2500.00        3180.72     
  1874.69        2500.00        3183.28     
  1872.18        2500.00        3182.06     
  1869.67        2500.00        3185.31     
  1867.17        2500.00        3185.25     
  1864.66        2500.00        3188.09     
  1862.16        2500.00        3189.24     
  1859.65        2500.00        3190.94     
  1857.14        2500.00        3192.79     
  1854.64        2500.00        3193.86     
  1852.13        2500.00        3195.72     
  1849.62        2500.00        3197.48     
  1847.12        2500.00        3199.30     
  1844.61        2500.00        3200.77     
  1842.11        2500.00        3201.61     
  1839.60        2500.00        3202.99     
  1837.09        2500.00        3205.05     
  1834.59        2500.00        3206.43     
  1832.08        2500.00        3208.43     
  1829.57        2500.00        3209.26     
  1827.07        2500.00        3210.90     
  1824.56        2500.00        3212.43     
  1822.06        2500.00        3213.64     
  1819.55        2500.00        3215.42     
  1817.04        2500.00        3217.29     
  1814.54        2500.00        3218.42     
  1812.03        2500.00        3219.98     
  1809.52        2500.00        3221.66     
  1807.02        2500.00        3223.34     
  1804.51        2500.00        3225.36     
  1802.01        2500.00        3226.01     
  1799.50        2500.00        3227.95     
  1796.99        2500.00        3229.63     
  1794.49        2500.00        3230.68     
  1791.98        2500.00        3233.57     
  1789.47        2500.00        3233.83     
  1786.97        2500.00        3235.42     
  1784.46        2500.00        3237.16     
  1781.95        2500.00        3239.53     
  1779.45        2500.00        3239.35     
  1776.94        2500.00        3240.95     
  1774.44        2500.00        3242.26     
  1771.93        2500.00        3244.64     
  1769.42        2500.00        3246.26     
  1766.92        2500.00        3248.09     
  1764.41        2500.00        3248.75     
  1761.90        2500.00        3249.59     
  1759.40        2500.00        3252.39     
  1756.89        2500.00        3253.78     
  1754.39        2500.00        3254.87     
  1751.88        2500.00        3256.49     
  1749.37        2500.00        3257.44     
  1746.87        2500.00        3258.87     
  1744.36        2500.00        3261.59     
  1741.85        2500.00        3262.80     
  1739.35        2500.00        3264.56     
  1736.84        2500.00        3266.62     
  1734.34        2500.00        3270.12     
  1731.83        2500.00        3269.12     
  1729.32        2500.00        3270.33     
  1726.82        2500.00        3271.96     
  1724.31        2500.00        3272.91     
  1721.80        2500.00        3274.82     
  1719.30        2500.00        3276.92     
  1716.79        2500.00        3277.88     
  1714.29        2500.00        3279.91     
  1711.78        2500.00        3280.94     
  1709.27        2500.00        3282.85     
  1706.77        2500.00        3284.20     
  1704.26        2500.00        3285.49     
  1701.75        2500.00        3287.16     
  1699.25        2500.00        3290.50     
  1696.74        2500.00        3289.78     
  1694.24        2500.00        3291.56     
  1691.73        2500.00        3292.95     
  1689.22        2500.00        3294.11     
  1686.72        2500.00        3296.19     
  1684.21        2500.00        3297.36     
  1681.70        2500.00        3298.93     
  1679.20        2500.00        3299.47     
  1676.69        2500.00        3301.59     
  1674.19        2500.00        3302.51     
  1671.68        2500.00        3304.03     
  1669.17        2500.00        3305.51     
  1666.67        2500.00        3307.19     
  1664.16        2500.00        3308.83     
  1661.65        2500.00        3309.08     
  1659.15        2500.00        3311.37     
  1656.64        2500.00        3312.64     
  1654.14        2500.00        3314.00     
  1651.63        2500.00        3315.45     
  1649.12        2500.00        3317.09     
  1646.62        2500.00        3318.17     
  1644.11        2500.00        3319.14     
  1641.60        2500.00        3320.49     
  1639.10        2500.00        3285.03     
  1636.59        2500.00        3237.34     
  1634.09        2500.00        3235.23     
  1631.58        2500.00        3235.78     
  1629.07        2500.00        3236.99     
  1626.57        2500.00        3237.75     
  1624.06        2500.00        3238.07     
  1621.55        2500.00        3240.20     
  1619.05        2500.00        3241.04     
  1616.54        2500.00        3241.47     
  1614.04        2500.00        3242.67     
  1611.53        2500.00        3244.16     
  1609.02        2500.00        3244.44     
  1606.52        2500.00        3245.10     
  1604.01        2500.00        3246.14     
  1601.50        2500.00        3247.04     
  1599.00        2500.00        3247.92     
  1596.49        2500.00        3248.87     
  1593.98        2500.00        3249.76     
  1591.48        2500.00        3250.89     
  1588.97        2500.00        3250.88     
  1586.47        2500.00        3252.63     
  1583.96        2500.00        3253.24     
  1581.45        2500.00        3258.34     
  1578.95        2500.00        3250.37     
  1576.44        2500.00        3255.80     
  1573.93        2500.00        3256.13     
  1571.43        2500.00        3257.59     
  1568.92        2500.00        3258.60     
  1566.42        2500.00        3259.61     
  1563.91        2500.00        3259.57     
  1561.40        2500.00        3261.14     
  1558.90        2500.00        3261.97     
  1556.39        2500.00        3262.34     
  1553.88        2500.00        3263.70     
  1551.38        2500.00        3264.05     
  1548.87        2500.00        3265.46     
  1546.37        2500.00        3265.57     
  1543.86        2500.00        3265.59     
  1541.35        2500.00        3267.91     
  1538.85        2500.00        3268.67     
  1536.34        2500.00        3270.99     
  1533.83        2500.00        3269.07     
  1531.33        2500.00        3271.05     
  1528.82        2500.00        3271.41     
  1526.32        2500.00        3270.80     
  1523.81        2500.00        3273.26     
  1521.30        2500.00        3273.38     
  1518.80        2500.00        3274.74     
  1516.29        2500.00        3275.72     
  1513.78        2500.00        3276.16     
  1511.28        2500.00        3276.45     
  1508.77        2500.00        3277.55     
  1506.27        2500.00        3278.19     
  1503.76        2500.00        3279.05     
  1501.25        2500.00        3286.86     
  1498.75        2500.00        3281.20     
  1496.24        2500.00        3282.30     
  1493.73        2500.00        3266.58     
  1491.23        2500.00        3260.95     
  1488.72        2500.00        3261.93     
  1486.22        2500.00        3263.50     
  1483.71        2500.00        3265.02     
  1481.20        2500.00        3266.62     
  1478.70        2500.00        3267.58     
  1476.19        2500.00        3270.09     
  1473.68        2500.00        3270.30     
  1471.18        2500.00        3272.10     
  1468.67        2500.00        3273.45     
  1466.17        2500.00        3275.00     
  1463.66        2500.00        3261.66     
  1461.15        2500.00        3263.33     
  1458.65        2500.00        3264.80     
  1456.14        2500.00        3266.35     
  1453.63        2500.00        3268.42     
  1451.13        2500.00        3270.16     
  1448.62        2500.00        3272.19     
  1446.12        2500.00        3273.98     
  1443.61        2500.00        3275.62     
  1441.10        2500.00        3277.88     
  1438.60        2500.00        3279.46     
  1436.09        2500.00        3281.50     
  1433.58        2500.00        3283.31     
  1431.08        2500.00        3285.59     
  1428.57        2500.00        3287.20     
  1426.07        2500.00        3289.15     
  1423.56        2500.00        3291.22     
  1421.05        2500.00        3205.00     
  1418.55        2500.00        3110.56     
  1416.04        2500.00        3118.07     
  1413.53        2500.00        3121.74     
  1411.03        2500.00        3124.85     
  1408.52        2500.00        3127.25     
  1406.02        2500.00        3129.41     
  1403.51        2500.00        3132.20     
  1401.00        2500.00        3134.97     
  1398.50        2500.00        3137.42     
  1395.99        2500.00        3140.03     
  1393.48        2500.00        3142.51     
  1390.98        2500.00        3145.20     
  1388.47        2500.00        3147.84     
  1385.96        2500.00        3150.35     
  1383.46        2500.00        3152.87     
  1380.95        2500.00        3155.55     
  1378.45        2500.00        3158.31     
  1375.94        2500.00        3160.86     
  1373.43        2500.00        3161.58     
  1370.93        2500.00        3168.18     
  1368.42        2500.00        3168.68     
  1365.91        2500.00        3171.38     
  1363.41        2500.00        3174.20     
  1360.90        2500.00        3176.65     
  1358.40        2500.00        3179.33     
  1355.89        2500.00        3182.11     
  1353.38        2500.00        3184.38     
  1350.88        2500.00        3187.10     
  1348.37        2500.00        3189.56     
  1345.86        2500.00        3192.04     
  1343.36        2500.00        3194.48     
  1340.85        2500.00        3196.94     
  1338.35        2500.00        3199.43     
  1335.84        2500.00        3201.73     
  1333.33        2500.00        3204.20     
  1330.83        2500.00        3203.65     
  1328.32        2500.00        3216.03     
  1325.81        2500.00        3210.85     
  1323.31        2500.00        3212.94     
  1320.80        2500.00        3215.22     
  1318.30        2500.00        3217.12     
  1315.79        2500.00        3218.99     
  1313.28        2500.00        3221.00     
  1310.78        2500.00        2797.25     
  1308.27        2500.00        2786.96     
  1305.76        2500.00        2792.62     
  1303.26        2500.00        2798.46     
  1300.75        2500.00        2803.32     
  1298.25        2500.00        2808.22     
  1295.74        2500.00        2813.04     
  1293.23        2500.00        2823.03     
  1290.73        2500.00        2845.71     
  1288.22        2500.00        2844.62     
  1285.71        2500.00        2840.94     
  1283.21        2500.00        2833.53     
  1280.70        2500.00        2831.65     
  1278.20        2500.00        2815.51     
  1275.69        2500.00        2813.14     
  1273.18        2500.00        2817.15     
  1270.68        2500.00        2828.44     
  1268.17        2500.00        2812.90     
  1265.66        2500.00        2779.11     
  1263.16        2500.00        3864.80     
  1260.65        2500.00        2902.53     
  1258.15        2500.00        2866.44     
  1255.64        2500.00        2877.68     
  1253.13        2500.00        2771.73     
  1250.63        2500.00                 NaN
  1248.12        2500.00                 NaN
  1245.61        2500.00                 NaN
  1243.11        2500.00                 NaN
  1240.60        2500.00                 NaN
  1238.10        2500.00                 NaN
  1235.59        2500.00                 NaN
  1233.08        2500.00                 NaN
  1230.58        2500.00                 NaN
  1228.07        2500.00                 NaN
  1225.56        2500.00                 NaN
  1223.06        2500.00                 NaN
  1220.55        2500.00                 NaN
  1218.05        2500.00                 NaN
  1215.54        2500.00                 NaN
  1213.03        2500.00                 NaN
  1210.53        2500.00                 NaN
  1208.02        2500.00                 NaN
  1205.51        2500.00                 NaN
  1203.01        2500.00                 NaN
  1200.50        2500.00                 NaN
  1197.99        2500.00                 NaN
  1195.49        2500.00                 NaN
  1192.98        2500.00                 NaN
  1190.48        2500.00                 NaN
  1187.97        2500.00                 NaN
  1185.46        2500.00                 NaN
  1182.96        2500.00                 NaN
  1180.45        2500.00                 NaN
  1177.94        2500.00                 NaN
  1175.44        2500.00                 NaN
  1172.93        2500.00                 NaN
  1170.43        2500.00                 NaN
  1167.92        2500.00                 NaN
  1165.41        2500.00                 NaN
  1162.91        2500.00                 NaN
  1160.40        2500.00                 NaN
  1157.89        2500.00                 NaN
  1155.39        2500.00                 NaN
  1152.88        2500.00                 NaN
  1150.38        2500.00                 NaN
  1147.87        2500.00                 NaN
  1145.36        2500.00                 NaN
  1142.86        2500.00                 NaN
  1140.35        2500.00                 NaN
  1137.84        2500.00                 NaN
  1135.34        2500.00                 NaN
  1132.83        2500.00                 NaN
  1130.33        2500.00                 NaN
  1127.82        2500.00                 NaN
  1125.31        2500.00                 NaN
  1122.81        2500.00                 NaN
  1120.30        2500.00                 NaN
  1117.79        2500.00                 NaN
  1115.29        2500.00                 NaN
  1112.78        2500.00                 NaN
  1110.28        2500.00                 NaN
  1107.77        2500.00                 NaN
  1105.26        2500.00                 NaN
  1102.76        2500.00                 NaN
  1100.25        2500.00                 NaN
  1097.74        2500.00                 NaN
  1095.24        2500.00                 NaN
  1092.73        2500.00                 NaN
  1090.23        2500.00                 NaN
  1087.72        2500.00                 NaN
  1085.21        2500.00                 NaN
  1082.71        2500.00                 NaN
  1080.20        2500.00                 NaN
  1077.69        2500.00                 NaN
  1075.19        2500.00                 NaN
  1072.68        2500.00                 NaN
  1070.18        2500.00                 NaN
  1067.67        2500.00                 NaN
  1065.16        2500.00                 NaN
  1062.66        2500.00                 NaN
  1060.15        2500.00                 NaN
  1057.64        2500.00                 NaN
  1055.14        2500.00                 NaN
  1052.63        2500.00                 NaN
  1050.13        2500.00                 NaN
  1047.62        2500.00                 NaN
  1045.11        2500.00                 NaN
  1042.61        2500.00                 NaN
  1040.10        2500.00                 NaN
  1037.59        2500.00                 NaN
  1035.09        2500.00                 NaN
  1032.58        2500.00                 NaN
  1030.08        2500.00                 NaN
  1027.57        2500.00                 NaN
  1025.06        2500.00                 NaN
  1022.56        2500.00                 NaN
  1020.05        2500.00                 NaN
  1017.54        2500.00                 NaN
  1015.04        2500.00                 NaN
  1012.53        2500.00                 NaN
  1010.03        2500.00                 NaN
  1007.52        2500.00                 NaN
  1005.01        2500.00                 NaN
  1002.51        2500.00                 NaN
  1000.00        2500.00                 NaN
