|6.6.6
Archiving\03_Data\frac/QFM_m0.25/YM20/YM20_4.tab                        
           1
T(K)    
  0.000000000000000E+000
  0.000000000000000E+000
           0
           3
T(K)           P(bar)         Sp(TH),m3     
  2000.00        2500.00                 NaN
  1997.49        2500.00                 NaN
  1994.99        2500.00                 NaN
  1992.48        2500.00                 NaN
  1989.97        2500.00                 NaN
  1987.47        2500.00                 NaN
  1984.96        2500.00                 NaN
  1982.46        2500.00                 NaN
  1979.95        2500.00                 NaN
  1977.44        2500.00                 NaN
  1974.94        2500.00                 NaN
  1972.43        2500.00                 NaN
  1969.92        2500.00                 NaN
  1967.42        2500.00                 NaN
  1964.91        2500.00                 NaN
  1962.41        2500.00                 NaN
  1959.90        2500.00                 NaN
  1957.39        2500.00                 NaN
  1954.89        2500.00                 NaN
  1952.38        2500.00                 NaN
  1949.87        2500.00                 NaN
  1947.37        2500.00                 NaN
  1944.86        2500.00                 NaN
  1942.36        2500.00                 NaN
  1939.85        2500.00                 NaN
  1937.34        2500.00                 NaN
  1934.84        2500.00                 NaN
  1932.33        2500.00                 NaN
  1929.82        2500.00                 NaN
  1927.32        2500.00                 NaN
  1924.81        2500.00                 NaN
  1922.31        2500.00                 NaN
  1919.80        2500.00                 NaN
  1917.29        2500.00                 NaN
  1914.79        2500.00                 NaN
  1912.28        2500.00                 NaN
  1909.77        2500.00                 NaN
  1907.27        2500.00                 NaN
  1904.76        2500.00                 NaN
  1902.26        2500.00                 NaN
  1899.75        2500.00                 NaN
  1897.24        2500.00                 NaN
  1894.74        2500.00       0.158493E-003
  1892.23        2500.00       0.396607E-003
  1889.72        2500.00       0.393121E-003
  1887.22        2500.00       0.391750E-003
  1884.71        2500.00       0.349286E-003
  1882.21        2500.00       0.341929E-003
  1879.70        2500.00       0.338669E-003
  1877.19        2500.00       0.335618E-003
  1874.69        2500.00       0.332075E-003
  1872.18        2500.00       0.329893E-003
  1869.67        2500.00       0.325530E-003
  1867.17        2500.00       0.324868E-003
  1864.66        2500.00       0.322497E-003
  1862.16        2500.00       0.313879E-003
  1859.65        2500.00       0.315719E-003
  1857.14        2500.00       0.311016E-003
  1854.64        2500.00       0.310192E-003
  1852.13        2500.00       0.305667E-003
  1849.62        2500.00       0.305812E-003
  1847.12        2500.00       0.298910E-003
  1844.61        2500.00       0.298756E-003
  1842.11        2500.00       0.296305E-003
  1839.60        2500.00       0.292915E-003
  1837.09        2500.00       0.290933E-003
  1834.59        2500.00       0.288311E-003
  1832.08        2500.00       0.286218E-003
  1829.57        2500.00       0.283432E-003
  1827.07        2500.00       0.281924E-003
  1824.56        2500.00       0.278996E-003
  1822.06        2500.00       0.275703E-003
  1819.55        2500.00       0.274444E-003
  1817.04        2500.00       0.271743E-003
  1814.54        2500.00       0.270597E-003
  1812.03        2500.00       0.266955E-003
  1809.52        2500.00       0.265046E-003
  1807.02        2500.00       0.257563E-003
  1804.51        2500.00       0.266385E-003
  1802.01        2500.00       0.258464E-003
  1799.50        2500.00       0.256728E-003
  1796.99        2500.00       0.254939E-003
  1794.49        2500.00       0.253140E-003
  1791.98        2500.00       0.250431E-003
  1789.47        2500.00       0.249162E-003
  1786.97        2500.00       0.246031E-003
  1784.46        2500.00       0.245192E-003
  1781.95        2500.00       0.241633E-003
  1779.45        2500.00       0.240364E-003
  1776.94        2500.00       0.239708E-003
  1774.44        2500.00       0.236740E-003
  1771.93        2500.00       0.234622E-003
  1769.42        2500.00       0.233345E-003
  1766.92        2500.00       0.224481E-003
  1764.41        2500.00       0.236473E-003
  1761.90        2500.00       0.227837E-003
  1759.40        2500.00       0.225654E-003
  1756.89        2500.00       0.230817E-003
  1754.39        2500.00       0.404272E-004
  1751.88        2500.00       0.397479E-003
  1749.37        2500.00       0.219102E-003
  1746.87        2500.00       0.217571E-003
  1744.36        2500.00       0.215678E-003
  1741.85        2500.00       0.214315E-003
  1739.35        2500.00       0.282213E-003
  1736.84        2500.00       0.122318E-003
  1734.34        2500.00       0.860562E-004
  1731.83        2500.00       0.351263E-003
  1729.32        2500.00       0.204789E-003
  1726.82        2500.00       0.204323E-003
  1724.31        2500.00       0.203375E-003
  1721.80        2500.00       0.200679E-003
  1719.30        2500.00       0.199629E-003
  1716.79        2500.00       0.198399E-003
  1714.29        2500.00       0.196540E-003
  1711.78        2500.00       0.194856E-003
  1709.27        2500.00       0.193533E-003
  1706.77        2500.00       0.192225E-003
  1704.26        2500.00       0.190219E-003
  1701.75        2500.00       0.188992E-003
  1699.25        2500.00       0.187900E-003
  1696.74        2500.00       0.186145E-003
  1694.24        2500.00       0.184386E-003
  1691.73        2500.00       0.183067E-003
  1689.22        2500.00       0.181867E-003
  1686.72        2500.00       0.180695E-003
  1684.21        2500.00       0.178739E-003
  1681.70        2500.00       0.177465E-003
  1679.20        2500.00       0.175890E-003
  1676.69        2500.00       0.174800E-003
  1674.19        2500.00       0.172705E-003
  1671.68        2500.00       0.171961E-003
  1669.17        2500.00       0.169916E-003
  1666.67        2500.00       0.169248E-003
  1664.16        2500.00       0.167462E-003
  1661.65        2500.00       0.166279E-003
  1659.15        2500.00       0.164848E-003
  1656.64        2500.00       0.163517E-003
  1654.14        2500.00       0.905317E-004
  1651.63        2500.00       0.232061E-003
  1649.12        2500.00       0.159254E-003
  1646.62        2500.00       0.158056E-003
  1644.11        2500.00       0.156545E-003
  1641.60        2500.00       0.157071E-003
  1639.10        2500.00       0.152647E-003
  1636.59        2500.00       0.152441E-003
  1634.09        2500.00       0.151584E-003
  1631.58        2500.00       0.152211E-004
  1629.07        2500.00                 NaN
  1626.57        2500.00                 NaN
  1624.06        2500.00                 NaN
  1621.55        2500.00                 NaN
  1619.05        2500.00                 NaN
  1616.54        2500.00                 NaN
  1614.04        2500.00                 NaN
  1611.53        2500.00                 NaN
  1609.02        2500.00                 NaN
  1606.52        2500.00                 NaN
  1604.01        2500.00                 NaN
  1601.50        2500.00                 NaN
  1599.00        2500.00                 NaN
  1596.49        2500.00                 NaN
  1593.98        2500.00                 NaN
  1591.48        2500.00                 NaN
  1588.97        2500.00                 NaN
  1586.47        2500.00                 NaN
  1583.96        2500.00                 NaN
  1581.45        2500.00                 NaN
  1578.95        2500.00                 NaN
  1576.44        2500.00                 NaN
  1573.93        2500.00                 NaN
  1571.43        2500.00                 NaN
  1568.92        2500.00                 NaN
  1566.42        2500.00                 NaN
  1563.91        2500.00                 NaN
  1561.40        2500.00                 NaN
  1558.90        2500.00                 NaN
  1556.39        2500.00                 NaN
  1553.88        2500.00                 NaN
  1551.38        2500.00                 NaN
  1548.87        2500.00                 NaN
  1546.37        2500.00                 NaN
  1543.86        2500.00                 NaN
  1541.35        2500.00                 NaN
  1538.85        2500.00                 NaN
  1536.34        2500.00                 NaN
  1533.83        2500.00                 NaN
  1531.33        2500.00                 NaN
  1528.82        2500.00                 NaN
  1526.32        2500.00                 NaN
  1523.81        2500.00                 NaN
  1521.30        2500.00                 NaN
  1518.80        2500.00                 NaN
  1516.29        2500.00                 NaN
  1513.78        2500.00                 NaN
  1511.28        2500.00                 NaN
  1508.77        2500.00                 NaN
  1506.27        2500.00                 NaN
  1503.76        2500.00                 NaN
  1501.25        2500.00                 NaN
  1498.75        2500.00                 NaN
  1496.24        2500.00                 NaN
  1493.73        2500.00                 NaN
  1491.23        2500.00                 NaN
  1488.72        2500.00                 NaN
  1486.22        2500.00                 NaN
  1483.71        2500.00                 NaN
  1481.20        2500.00                 NaN
  1478.70        2500.00                 NaN
  1476.19        2500.00                 NaN
  1473.68        2500.00                 NaN
  1471.18        2500.00                 NaN
  1468.67        2500.00                 NaN
  1466.17        2500.00                 NaN
  1463.66        2500.00                 NaN
  1461.15        2500.00                 NaN
  1458.65        2500.00                 NaN
  1456.14        2500.00                 NaN
  1453.63        2500.00                 NaN
  1451.13        2500.00                 NaN
  1448.62        2500.00                 NaN
  1446.12        2500.00                 NaN
  1443.61        2500.00                 NaN
  1441.10        2500.00                 NaN
  1438.60        2500.00                 NaN
  1436.09        2500.00                 NaN
  1433.58        2500.00                 NaN
  1431.08        2500.00                 NaN
  1428.57        2500.00                 NaN
  1426.07        2500.00                 NaN
  1423.56        2500.00                 NaN
  1421.05        2500.00                 NaN
  1418.55        2500.00                 NaN
  1416.04        2500.00                 NaN
  1413.53        2500.00                 NaN
  1411.03        2500.00                 NaN
  1408.52        2500.00                 NaN
  1406.02        2500.00                 NaN
  1403.51        2500.00                 NaN
  1401.00        2500.00                 NaN
  1398.50        2500.00                 NaN
  1395.99        2500.00                 NaN
  1393.48        2500.00                 NaN
  1390.98        2500.00                 NaN
  1388.47        2500.00                 NaN
  1385.96        2500.00                 NaN
  1383.46        2500.00                 NaN
  1380.95        2500.00                 NaN
  1378.45        2500.00                 NaN
  1375.94        2500.00                 NaN
  1373.43        2500.00                 NaN
  1370.93        2500.00                 NaN
  1368.42        2500.00                 NaN
  1365.91        2500.00                 NaN
  1363.41        2500.00                 NaN
  1360.90        2500.00                 NaN
  1358.40        2500.00                 NaN
  1355.89        2500.00                 NaN
  1353.38        2500.00                 NaN
  1350.88        2500.00                 NaN
  1348.37        2500.00                 NaN
  1345.86        2500.00                 NaN
  1343.36        2500.00                 NaN
  1340.85        2500.00                 NaN
  1338.35        2500.00                 NaN
  1335.84        2500.00                 NaN
  1333.33        2500.00                 NaN
  1330.83        2500.00                 NaN
  1328.32        2500.00                 NaN
  1325.81        2500.00                 NaN
  1323.31        2500.00                 NaN
  1320.80        2500.00                 NaN
  1318.30        2500.00                 NaN
  1315.79        2500.00                 NaN
  1313.28        2500.00                 NaN
  1310.78        2500.00                 NaN
  1308.27        2500.00                 NaN
  1305.76        2500.00                 NaN
  1303.26        2500.00                 NaN
  1300.75        2500.00                 NaN
  1298.25        2500.00                 NaN
  1295.74        2500.00       0.526778E-002
  1293.23        2500.00       0.289262E-002
  1290.73        2500.00       0.119589E-002
  1288.22        2500.00       0.631574E-003
  1285.71        2500.00       0.374301E-003
  1283.21        2500.00       0.103138E-003
  1280.70        2500.00       0.180390E-003
  1278.20        2500.00       0.198503E-003
  1275.69        2500.00       0.571966E-004
  1273.18        2500.00       0.729300E-004
  1270.68        2500.00       0.665190E-004
  1268.17        2500.00       0.793529E-004
  1265.66        2500.00       0.299688E-004
  1263.16        2500.00       0.427716E-004
  1260.65        2500.00       0.375860E-004
  1258.15        2500.00       0.322490E-004
  1255.64        2500.00       0.167633E-004
  1253.13        2500.00       0.645423E-005
  1250.63        2500.00       0.702030E-005
  1248.12        2500.00       0.489174E-005
  1245.61        2500.00       0.448862E-005
  1243.11        2500.00       0.353233E-005
  1240.60        2500.00       0.294140E-005
  1238.10        2500.00       0.246626E-005
  1235.59        2500.00       0.180766E-005
  1233.08        2500.00       0.131199E-005
  1230.58        2500.00       0.829317E-006
  1228.07        2500.00                 NaN
  1225.56        2500.00       0.118104E-006
  1223.06        2500.00       0.164444E-003
  1220.55        2500.00       0.163470E-003
  1218.05        2500.00       0.164549E-003
  1215.54        2500.00       0.162123E-003
  1213.03        2500.00       0.162090E-003
  1210.53        2500.00       0.161960E-003
  1208.02        2500.00       0.161591E-003
  1205.51        2500.00       0.161178E-003
  1203.01        2500.00       0.160768E-003
  1200.50        2500.00       0.160526E-003
  1197.99        2500.00       0.160302E-003
  1195.49        2500.00       0.161536E-003
  1192.98        2500.00       0.159950E-003
  1190.48        2500.00       0.159690E-003
  1187.97        2500.00       0.160267E-003
  1185.46        2500.00       0.158966E-003
  1182.96        2500.00       0.155337E-003
  1180.45        2500.00       0.151631E-003
  1177.94        2500.00       0.148172E-003
  1175.44        2500.00       0.144884E-003
  1172.93        2500.00       0.141485E-003
  1170.43        2500.00       0.119698E-003
  1167.92        2500.00       0.135564E-003
  1165.41        2500.00       0.132677E-003
  1162.91        2500.00       0.125673E-003
  1160.40        2500.00       0.126385E-003
  1157.89        2500.00       0.123178E-003
  1155.39        2500.00       0.119927E-003
  1152.88        2500.00       0.116613E-003
  1150.38        2500.00       0.113318E-003
  1147.87        2500.00       0.109967E-003
  1145.36        2500.00       0.106178E-003
  1142.86        2500.00       0.102564E-003
  1140.35        2500.00       0.988633E-004
  1137.84        2500.00       0.950717E-004
  1135.34        2500.00       0.911878E-004
  1132.83        2500.00       0.877446E-004
  1130.33        2500.00       0.837513E-004
  1127.82        2500.00       0.788680E-004
  1125.31        2500.00       0.745123E-004
  1122.81        2500.00       0.700250E-004
  1120.30        2500.00       0.657020E-004
  1117.79        2500.00       0.615137E-004
  1115.29        2500.00       0.556180E-004
  1112.78        2500.00       0.504537E-004
  1110.28        2500.00       0.464180E-004
  1107.77        2500.00       0.395562E-004
  1105.26        2500.00       0.337467E-004
  1102.76        2500.00       0.276743E-004
  1100.25        2500.00       0.229914E-004
  1097.74        2500.00       0.146765E-004
  1095.24        2500.00       0.768938E-005
  1092.73        2500.00       0.365074E-005
  1090.23        2500.00                 NaN
  1087.72        2500.00                 NaN
  1085.21        2500.00                 NaN
  1082.71        2500.00                 NaN
  1080.20        2500.00                 NaN
  1077.69        2500.00                 NaN
  1075.19        2500.00                 NaN
  1072.68        2500.00                 NaN
  1070.18        2500.00                 NaN
  1067.67        2500.00                 NaN
  1065.16        2500.00                 NaN
  1062.66        2500.00                 NaN
  1060.15        2500.00                 NaN
  1057.64        2500.00                 NaN
  1055.14        2500.00                 NaN
  1052.63        2500.00                 NaN
  1050.13        2500.00                 NaN
  1047.62        2500.00                 NaN
  1045.11        2500.00                 NaN
  1042.61        2500.00                 NaN
  1040.10        2500.00                 NaN
  1037.59        2500.00                 NaN
  1035.09        2500.00                 NaN
  1032.58        2500.00                 NaN
  1030.08        2500.00                 NaN
  1027.57        2500.00                 NaN
  1025.06        2500.00                 NaN
  1022.56        2500.00                 NaN
  1020.05        2500.00                 NaN
  1017.54        2500.00                 NaN
  1015.04        2500.00                 NaN
  1012.53        2500.00                 NaN
  1010.03        2500.00                 NaN
  1007.52        2500.00                 NaN
  1005.01        2500.00                 NaN
  1002.51        2500.00                 NaN
  1000.00        2500.00                 NaN
