|6.6.6
Archiving\03_Data\Dfrac/QFM_m0.5/YM20/YM20_4.tab                        
           1
T(K)    
  0.000000000000000E+000
  0.000000000000000E+000
           0
           3
T(K)           P(bar)         Sp(TH),m3     
  2000.00        2500.00                 NaN
  1997.49        2500.00                 NaN
  1994.99        2500.00                 NaN
  1992.48        2500.00                 NaN
  1989.97        2500.00                 NaN
  1987.47        2500.00                 NaN
  1984.96        2500.00                 NaN
  1982.46        2500.00                 NaN
  1979.95        2500.00                 NaN
  1977.44        2500.00                 NaN
  1974.94        2500.00                 NaN
  1972.43        2500.00                 NaN
  1969.92        2500.00                 NaN
  1967.42        2500.00                 NaN
  1964.91        2500.00                 NaN
  1962.41        2500.00                 NaN
  1959.90        2500.00                 NaN
  1957.39        2500.00                 NaN
  1954.89        2500.00                 NaN
  1952.38        2500.00                 NaN
  1949.87        2500.00                 NaN
  1947.37        2500.00                 NaN
  1944.86        2500.00                 NaN
  1942.36        2500.00                 NaN
  1939.85        2500.00                 NaN
  1937.34        2500.00                 NaN
  1934.84        2500.00                 NaN
  1932.33        2500.00                 NaN
  1929.82        2500.00                 NaN
  1927.32        2500.00                 NaN
  1924.81        2500.00                 NaN
  1922.31        2500.00                 NaN
  1919.80        2500.00       0.296899E-004
  1917.29        2500.00       0.404808E-003
  1914.79        2500.00       0.402957E-003
  1912.28        2500.00       0.392478E-003
  1909.77        2500.00       0.346928E-003
  1907.27        2500.00       0.343101E-003
  1904.76        2500.00       0.339740E-003
  1902.26        2500.00       0.336777E-003
  1899.75        2500.00       0.333106E-003
  1897.24        2500.00       0.330024E-003
  1894.74        2500.00       0.330139E-003
  1892.23        2500.00       0.321177E-003
  1889.72        2500.00       0.320416E-003
  1887.22        2500.00       0.305036E-003
  1884.71        2500.00       0.327604E-003
  1882.21        2500.00       0.312005E-003
  1879.70        2500.00       0.345412E-003
  1877.19        2500.00       0.269973E-003
  1874.69        2500.00       0.303762E-003
  1872.18        2500.00       0.301054E-003
  1869.67        2500.00       0.301231E-003
  1867.17        2500.00       0.292873E-003
  1864.66        2500.00       0.293528E-003
  1862.16        2500.00       0.290488E-003
  1859.65        2500.00       0.287917E-003
  1857.14        2500.00       0.285614E-003
  1854.64        2500.00       0.283469E-003
  1852.13        2500.00       0.282491E-003
  1849.62        2500.00       0.277177E-003
  1847.12        2500.00       0.277510E-003
  1844.61        2500.00       0.273011E-003
  1842.11        2500.00       0.271525E-003
  1839.60        2500.00       0.271623E-003
  1837.09        2500.00       0.266253E-003
  1834.59        2500.00       0.265264E-003
  1832.08        2500.00       0.263861E-003
  1829.57        2500.00       0.260992E-003
  1827.07        2500.00       0.259443E-003
  1824.56        2500.00       0.256686E-003
  1822.06        2500.00       0.256901E-003
  1819.55        2500.00       0.251106E-003
  1817.04        2500.00       0.251639E-003
  1814.54        2500.00       0.249711E-003
  1812.03        2500.00       0.246940E-003
  1809.52        2500.00       0.246097E-003
  1807.02        2500.00       0.243778E-003
  1804.51        2500.00       0.241596E-003
  1802.01        2500.00       0.241507E-003
  1799.50        2500.00       0.238133E-003
  1796.99        2500.00       0.236621E-003
  1794.49        2500.00       0.830519E-003
  1791.98        2500.00                 NaN
  1789.47        2500.00       0.500414E-005
  1786.97        2500.00       0.129239E-003
  1784.46        2500.00       0.228303E-003
  1781.95        2500.00       0.225834E-003
  1779.45        2500.00       0.224643E-003
  1776.94        2500.00       0.208515E-003
  1774.44        2500.00       0.235731E-003
  1771.93        2500.00       0.219085E-003
  1769.42        2500.00       0.217928E-003
  1766.92        2500.00       0.209868E-003
  1764.41        2500.00       0.222006E-003
  1761.90        2500.00       0.213317E-003
  1759.40        2500.00       0.212300E-003
  1756.89        2500.00       0.210558E-003
  1754.39        2500.00       0.209562E-003
  1751.88        2500.00       0.208364E-003
  1749.37        2500.00       0.205888E-003
  1746.87        2500.00       0.204587E-003
  1744.36        2500.00       0.204987E-003
  1741.85        2500.00       0.202347E-003
  1739.35        2500.00       0.200386E-003
  1736.84        2500.00       0.200211E-003
  1734.34        2500.00       0.697438E-003
  1731.83        2500.00                 NaN
  1729.32        2500.00                 NaN
  1726.82        2500.00       0.557632E-004
  1724.31        2500.00       0.218384E-003
  1721.80        2500.00       0.191002E-003
  1719.30        2500.00       0.190562E-003
  1716.79        2500.00       0.181253E-003
  1714.29        2500.00       0.193787E-003
  1711.78        2500.00       0.184872E-003
  1709.27        2500.00       0.290935E-003
  1706.77        2500.00       0.760907E-004
  1704.26        2500.00       0.182749E-003
  1701.75        2500.00       0.180410E-003
  1699.25        2500.00       0.179189E-003
  1696.74        2500.00       0.178116E-003
  1694.24        2500.00       0.177815E-003
  1691.73        2500.00       0.174506E-003
  1689.22        2500.00       0.244970E-003
  1686.72        2500.00       0.981059E-004
  1684.21        2500.00       0.175190E-003
  1681.70        2500.00       0.170570E-003
  1679.20        2500.00       0.169050E-003
  1676.69        2500.00       0.167831E-003
  1674.19        2500.00       0.166636E-003
  1671.68        2500.00       0.165124E-003
  1669.17        2500.00       0.163853E-003
  1666.67        2500.00       0.162611E-003
  1664.16        2500.00       0.161688E-003
  1661.65        2500.00       0.160121E-003
  1659.15        2500.00       0.159272E-003
  1656.64        2500.00       0.157597E-003
  1654.14        2500.00       0.156504E-003
  1651.63        2500.00       0.156216E-003
  1649.12        2500.00                 NaN
  1646.62        2500.00                 NaN
  1644.11        2500.00                 NaN
  1641.60        2500.00                 NaN
  1639.10        2500.00                 NaN
  1636.59        2500.00                 NaN
  1634.09        2500.00                 NaN
  1631.58        2500.00                 NaN
  1629.07        2500.00                 NaN
  1626.57        2500.00                 NaN
  1624.06        2500.00                 NaN
  1621.55        2500.00                 NaN
  1619.05        2500.00                 NaN
  1616.54        2500.00                 NaN
  1614.04        2500.00                 NaN
  1611.53        2500.00                 NaN
  1609.02        2500.00                 NaN
  1606.52        2500.00                 NaN
  1604.01        2500.00                 NaN
  1601.50        2500.00                 NaN
  1599.00        2500.00                 NaN
  1596.49        2500.00                 NaN
  1593.98        2500.00                 NaN
  1591.48        2500.00                 NaN
  1588.97        2500.00                 NaN
  1586.47        2500.00                 NaN
  1583.96        2500.00                 NaN
  1581.45        2500.00                 NaN
  1578.95        2500.00                 NaN
  1576.44        2500.00                 NaN
  1573.93        2500.00                 NaN
  1571.43        2500.00                 NaN
  1568.92        2500.00                 NaN
  1566.42        2500.00                 NaN
  1563.91        2500.00                 NaN
  1561.40        2500.00                 NaN
  1558.90        2500.00                 NaN
  1556.39        2500.00                 NaN
  1553.88        2500.00                 NaN
  1551.38        2500.00                 NaN
  1548.87        2500.00                 NaN
  1546.37        2500.00                 NaN
  1543.86        2500.00                 NaN
  1541.35        2500.00                 NaN
  1538.85        2500.00                 NaN
  1536.34        2500.00                 NaN
  1533.83        2500.00                 NaN
  1531.33        2500.00                 NaN
  1528.82        2500.00                 NaN
  1526.32        2500.00                 NaN
  1523.81        2500.00                 NaN
  1521.30        2500.00                 NaN
  1518.80        2500.00                 NaN
  1516.29        2500.00                 NaN
  1513.78        2500.00                 NaN
  1511.28        2500.00                 NaN
  1508.77        2500.00                 NaN
  1506.27        2500.00                 NaN
  1503.76        2500.00                 NaN
  1501.25        2500.00                 NaN
  1498.75        2500.00                 NaN
  1496.24        2500.00                 NaN
  1493.73        2500.00                 NaN
  1491.23        2500.00                 NaN
  1488.72        2500.00                 NaN
  1486.22        2500.00                 NaN
  1483.71        2500.00                 NaN
  1481.20        2500.00                 NaN
  1478.70        2500.00                 NaN
  1476.19        2500.00                 NaN
  1473.68        2500.00                 NaN
  1471.18        2500.00                 NaN
  1468.67        2500.00                 NaN
  1466.17        2500.00                 NaN
  1463.66        2500.00                 NaN
  1461.15        2500.00                 NaN
  1458.65        2500.00                 NaN
  1456.14        2500.00                 NaN
  1453.63        2500.00                 NaN
  1451.13        2500.00                 NaN
  1448.62        2500.00                 NaN
  1446.12        2500.00                 NaN
  1443.61        2500.00                 NaN
  1441.10        2500.00                 NaN
  1438.60        2500.00                 NaN
  1436.09        2500.00                 NaN
  1433.58        2500.00                 NaN
  1431.08        2500.00                 NaN
  1428.57        2500.00                 NaN
  1426.07        2500.00                 NaN
  1423.56        2500.00                 NaN
  1421.05        2500.00                 NaN
  1418.55        2500.00                 NaN
  1416.04        2500.00                 NaN
  1413.53        2500.00                 NaN
  1411.03        2500.00                 NaN
  1408.52        2500.00                 NaN
  1406.02        2500.00                 NaN
  1403.51        2500.00                 NaN
  1401.00        2500.00                 NaN
  1398.50        2500.00                 NaN
  1395.99        2500.00                 NaN
  1393.48        2500.00                 NaN
  1390.98        2500.00                 NaN
  1388.47        2500.00                 NaN
  1385.96        2500.00                 NaN
  1383.46        2500.00                 NaN
  1380.95        2500.00                 NaN
  1378.45        2500.00                 NaN
  1375.94        2500.00                 NaN
  1373.43        2500.00                 NaN
  1370.93        2500.00                 NaN
  1368.42        2500.00                 NaN
  1365.91        2500.00                 NaN
  1363.41        2500.00                 NaN
  1360.90        2500.00                 NaN
  1358.40        2500.00                 NaN
  1355.89        2500.00                 NaN
  1353.38        2500.00                 NaN
  1350.88        2500.00                 NaN
  1348.37        2500.00                 NaN
  1345.86        2500.00                 NaN
  1343.36        2500.00                 NaN
  1340.85        2500.00                 NaN
  1338.35        2500.00                 NaN
  1335.84        2500.00       0.308921E-003
  1333.33        2500.00       0.401816E-003
  1330.83        2500.00       0.400330E-003
  1328.32        2500.00       0.357041E-003
  1325.81        2500.00       0.352290E-003
  1323.31        2500.00       0.335905E-003
  1320.80        2500.00       0.321319E-003
  1318.30        2500.00       0.307324E-003
  1315.79        2500.00       0.293181E-003
  1313.28        2500.00       0.281999E-003
  1310.78        2500.00       0.269883E-003
  1308.27        2500.00       0.257684E-003
  1305.76        2500.00       0.245341E-003
  1303.26        2500.00       0.226440E-003
  1300.75        2500.00       0.222442E-003
  1298.25        2500.00       0.212289E-003
  1295.74        2500.00       0.202291E-003
  1293.23        2500.00       0.192665E-003
  1290.73        2500.00       0.670319E-003
  1288.22        2500.00       0.988073E-003
  1285.71        2500.00       0.594297E-003
  1283.21        2500.00       0.398091E-003
  1280.70        2500.00       0.289242E-003
  1278.20        2500.00       0.203696E-003
  1275.69        2500.00       0.170224E-003
  1273.18        2500.00       0.122327E-003
  1270.68        2500.00       0.109146E-003
  1268.17        2500.00       0.828653E-004
  1265.66        2500.00       0.990438E-004
  1263.16        2500.00       0.202293E-004
  1260.65        2500.00       0.787409E-004
  1258.15        2500.00       0.475463E-004
  1255.64        2500.00       0.386064E-004
  1253.13        2500.00       0.308237E-004
  1250.63        2500.00       0.345626E-004
  1248.12        2500.00       0.353700E-004
  1245.61        2500.00       0.274069E-004
  1243.11        2500.00       0.116219E-004
  1240.60        2500.00       0.182122E-004
  1238.10        2500.00                 NaN
  1235.59        2500.00       0.739248E-005
  1233.08        2500.00       0.507107E-004
  1230.58        2500.00       0.577287E-004
  1228.07        2500.00       0.461232E-004
  1225.56        2500.00       0.285955E-004
  1223.06        2500.00       0.359923E-005
  1220.55        2500.00       0.834041E-004
  1218.05        2500.00       0.108153E-003
  1215.54        2500.00       0.109676E-003
  1213.03        2500.00       0.578434E-004
  1210.53        2500.00       0.965959E-004
  1208.02        2500.00       0.985849E-004
  1205.51        2500.00                 NaN
  1203.01        2500.00       0.108689E-003
  1200.50        2500.00       0.118340E-003
  1197.99        2500.00       0.121560E-003
  1195.49        2500.00                 NaN
  1192.98        2500.00                 NaN
  1190.48        2500.00                 NaN
  1187.97        2500.00       0.122619E-003
  1185.46        2500.00       0.121985E-003
  1182.96        2500.00                 NaN
  1180.45        2500.00       0.118715E-003
  1177.94        2500.00       0.119901E-003
  1175.44        2500.00       0.115890E-003
  1172.93        2500.00       0.114792E-003
  1170.43        2500.00       0.115093E-003
  1167.92        2500.00                 NaN
  1165.41        2500.00                 NaN
  1162.91        2500.00                 NaN
  1160.40        2500.00                 NaN
  1157.89        2500.00                 NaN
  1155.39        2500.00                 NaN
  1152.88        2500.00                 NaN
  1150.38        2500.00                 NaN
  1147.87        2500.00                 NaN
  1145.36        2500.00                 NaN
  1142.86        2500.00                 NaN
  1140.35        2500.00                 NaN
  1137.84        2500.00                 NaN
  1135.34        2500.00                 NaN
  1132.83        2500.00                 NaN
  1130.33        2500.00                 NaN
  1127.82        2500.00                 NaN
  1125.31        2500.00                 NaN
  1122.81        2500.00                 NaN
  1120.30        2500.00                 NaN
  1117.79        2500.00                 NaN
  1115.29        2500.00                 NaN
  1112.78        2500.00                 NaN
  1110.28        2500.00                 NaN
  1107.77        2500.00                 NaN
  1105.26        2500.00                 NaN
  1102.76        2500.00                 NaN
  1100.25        2500.00                 NaN
  1097.74        2500.00                 NaN
  1095.24        2500.00                 NaN
  1092.73        2500.00                 NaN
  1090.23        2500.00                 NaN
  1087.72        2500.00                 NaN
  1085.21        2500.00                 NaN
  1082.71        2500.00                 NaN
  1080.20        2500.00                 NaN
  1077.69        2500.00                 NaN
  1075.19        2500.00                 NaN
  1072.68        2500.00                 NaN
  1070.18        2500.00                 NaN
  1067.67        2500.00                 NaN
  1065.16        2500.00                 NaN
  1062.66        2500.00                 NaN
  1060.15        2500.00                 NaN
  1057.64        2500.00                 NaN
  1055.14        2500.00                 NaN
  1052.63        2500.00                 NaN
  1050.13        2500.00                 NaN
  1047.62        2500.00                 NaN
  1045.11        2500.00                 NaN
  1042.61        2500.00                 NaN
  1040.10        2500.00                 NaN
  1037.59        2500.00                 NaN
  1035.09        2500.00                 NaN
  1032.58        2500.00                 NaN
  1030.08        2500.00                 NaN
  1027.57        2500.00                 NaN
  1025.06        2500.00                 NaN
  1022.56        2500.00                 NaN
  1020.05        2500.00                 NaN
  1017.54        2500.00                 NaN
  1015.04        2500.00                 NaN
  1012.53        2500.00                 NaN
  1010.03        2500.00                 NaN
  1007.52        2500.00                 NaN
  1005.01        2500.00                 NaN
  1002.51        2500.00                 NaN
  1000.00        2500.00                 NaN
