|6.6.6
Archiving\03_Data\Deqfrac/QFM_m0.25/YM20/YM20_4.tab                     
           1
T(K)    
  0.000000000000000E+000
  0.000000000000000E+000
           0
           3
T(K)           P(bar)         Sp(TH),m3     
  1608.97        2500.00       0.859543E-004
  1607.44        2500.00                 NaN
  1605.92        2500.00                 NaN
  1604.39        2500.00                 NaN
  1602.87        2500.00                 NaN
  1601.34        2500.00                 NaN
  1599.81        2500.00                 NaN
  1598.29        2500.00                 NaN
  1596.76        2500.00                 NaN
  1595.23        2500.00                 NaN
  1593.71        2500.00                 NaN
  1592.18        2500.00                 NaN
  1590.66        2500.00                 NaN
  1589.13        2500.00                 NaN
  1587.60        2500.00                 NaN
  1586.08        2500.00                 NaN
  1584.55        2500.00                 NaN
  1583.02        2500.00                 NaN
  1581.50        2500.00                 NaN
  1579.97        2500.00                 NaN
  1578.45        2500.00                 NaN
  1576.92        2500.00                 NaN
  1575.39        2500.00                 NaN
  1573.87        2500.00                 NaN
  1572.34        2500.00                 NaN
  1570.81        2500.00                 NaN
  1569.29        2500.00                 NaN
  1567.76        2500.00                 NaN
  1566.24        2500.00                 NaN
  1564.71        2500.00                 NaN
  1563.18        2500.00                 NaN
  1561.66        2500.00                 NaN
  1560.13        2500.00                 NaN
  1558.60        2500.00                 NaN
  1557.08        2500.00                 NaN
  1555.55        2500.00                 NaN
  1554.03        2500.00                 NaN
  1552.50        2500.00                 NaN
  1550.97        2500.00                 NaN
  1549.45        2500.00                 NaN
  1547.92        2500.00                 NaN
  1546.39        2500.00                 NaN
  1544.87        2500.00                 NaN
  1543.34        2500.00                 NaN
  1541.82        2500.00                 NaN
  1540.29        2500.00                 NaN
  1538.76        2500.00                 NaN
  1537.24        2500.00                 NaN
  1535.71        2500.00                 NaN
  1534.18        2500.00                 NaN
  1532.66        2500.00                 NaN
  1531.13        2500.00                 NaN
  1529.61        2500.00                 NaN
  1528.08        2500.00                 NaN
  1526.55        2500.00                 NaN
  1525.03        2500.00                 NaN
  1523.50        2500.00                 NaN
  1521.97        2500.00                 NaN
  1520.45        2500.00                 NaN
  1518.92        2500.00                 NaN
  1517.40        2500.00                 NaN
  1515.87        2500.00                 NaN
  1514.34        2500.00                 NaN
  1512.82        2500.00                 NaN
  1511.29        2500.00                 NaN
  1509.76        2500.00                 NaN
  1508.24        2500.00                 NaN
  1506.71        2500.00                 NaN
  1505.19        2500.00                 NaN
  1503.66        2500.00                 NaN
  1502.13        2500.00                 NaN
  1500.61        2500.00                 NaN
  1499.08        2500.00                 NaN
  1497.55        2500.00                 NaN
  1496.03        2500.00                 NaN
  1494.50        2500.00                 NaN
  1492.98        2500.00                 NaN
  1491.45        2500.00                 NaN
  1489.92        2500.00                 NaN
  1488.40        2500.00                 NaN
  1486.87        2500.00                 NaN
  1485.34        2500.00                 NaN
  1483.82        2500.00                 NaN
  1482.29        2500.00                 NaN
  1480.77        2500.00                 NaN
  1479.24        2500.00                 NaN
  1477.71        2500.00                 NaN
  1476.19        2500.00                 NaN
  1474.66        2500.00                 NaN
  1473.13        2500.00                 NaN
  1471.61        2500.00                 NaN
  1470.08        2500.00                 NaN
  1468.56        2500.00                 NaN
  1467.03        2500.00                 NaN
  1465.50        2500.00                 NaN
  1463.98        2500.00                 NaN
  1462.45        2500.00                 NaN
  1460.92        2500.00                 NaN
  1459.40        2500.00                 NaN
  1457.87        2500.00                 NaN
  1456.35        2500.00                 NaN
  1454.82        2500.00                 NaN
  1453.29        2500.00                 NaN
  1451.77        2500.00                 NaN
  1450.24        2500.00                 NaN
  1448.71        2500.00                 NaN
  1447.19        2500.00                 NaN
  1445.66        2500.00                 NaN
  1444.14        2500.00                 NaN
  1442.61        2500.00                 NaN
  1441.08        2500.00                 NaN
  1439.56        2500.00                 NaN
  1438.03        2500.00                 NaN
  1436.50        2500.00                 NaN
  1434.98        2500.00                 NaN
  1433.45        2500.00                 NaN
  1431.93        2500.00                 NaN
  1430.40        2500.00                 NaN
  1428.87        2500.00                 NaN
  1427.35        2500.00                 NaN
  1425.82        2500.00                 NaN
  1424.29        2500.00                 NaN
  1422.77        2500.00                 NaN
  1421.24        2500.00                 NaN
  1419.72        2500.00                 NaN
  1418.19        2500.00                 NaN
  1416.66        2500.00                 NaN
  1415.14        2500.00                 NaN
  1413.61        2500.00                 NaN
  1412.08        2500.00                 NaN
  1410.56        2500.00                 NaN
  1409.03        2500.00                 NaN
  1407.51        2500.00                 NaN
  1405.98        2500.00                 NaN
  1404.45        2500.00                 NaN
  1402.93        2500.00                 NaN
  1401.40        2500.00                 NaN
  1399.88        2500.00                 NaN
  1398.35        2500.00                 NaN
  1396.82        2500.00                 NaN
  1395.30        2500.00                 NaN
  1393.77        2500.00                 NaN
  1392.24        2500.00                 NaN
  1390.72        2500.00                 NaN
  1389.19        2500.00                 NaN
  1387.67        2500.00                 NaN
  1386.14        2500.00                 NaN
  1384.61        2500.00                 NaN
  1383.09        2500.00                 NaN
  1381.56        2500.00                 NaN
  1380.03        2500.00                 NaN
  1378.51        2500.00                 NaN
  1376.98        2500.00                 NaN
  1375.46        2500.00                 NaN
  1373.93        2500.00                 NaN
  1372.40        2500.00                 NaN
  1370.88        2500.00                 NaN
  1369.35        2500.00                 NaN
  1367.82        2500.00                 NaN
  1366.30        2500.00                 NaN
  1364.77        2500.00                 NaN
  1363.25        2500.00                 NaN
  1361.72        2500.00                 NaN
  1360.19        2500.00                 NaN
  1358.67        2500.00                 NaN
  1357.14        2500.00                 NaN
  1355.61        2500.00                 NaN
  1354.09        2500.00                 NaN
  1352.56        2500.00                 NaN
  1351.04        2500.00                 NaN
  1349.51        2500.00                 NaN
  1347.98        2500.00                 NaN
  1346.46        2500.00                 NaN
  1344.93        2500.00                 NaN
  1343.40        2500.00                 NaN
  1341.88        2500.00                 NaN
  1340.35        2500.00                 NaN
  1338.83        2500.00                 NaN
  1337.30        2500.00                 NaN
  1335.77        2500.00                 NaN
  1334.25        2500.00                 NaN
  1332.72        2500.00       0.202535E-003
  1331.19        2500.00       0.218150E-003
  1329.67        2500.00       0.211635E-003
  1328.14        2500.00       0.205199E-003
  1326.62        2500.00       0.198946E-003
  1325.09        2500.00       0.192749E-003
  1323.56        2500.00       0.186766E-003
  1322.04        2500.00       0.181242E-003
  1320.51        2500.00       0.175622E-003
  1318.98        2500.00       0.170236E-003
  1317.46        2500.00       0.165248E-003
  1315.93        2500.00       0.160083E-003
  1314.41        2500.00       0.155280E-003
  1312.88        2500.00       0.150564E-003
  1311.35        2500.00       0.145943E-003
  1309.83        2500.00       0.141585E-003
  1308.30        2500.00       0.137358E-003
  1306.77        2500.00       0.133178E-003
  1305.25        2500.00       0.129262E-003
  1303.72        2500.00       0.125525E-003
  1302.20        2500.00       0.121604E-003
  1300.67        2500.00       0.994678E-004
  1299.14        2500.00       0.133266E-003
  1297.62        2500.00       0.111266E-003
  1296.09        2500.00       0.330646E-003
  1294.56        2500.00       0.144252E-002
  1293.04        2500.00       0.792820E-003
  1291.51        2500.00       0.495386E-003
  1289.99        2500.00       0.358931E-003
  1288.46        2500.00       0.251841E-003
  1286.93        2500.00       0.194015E-003
  1285.41        2500.00       0.222184E-003
  1283.88        2500.00       0.287622E-004
  1282.35        2500.00       0.625256E-004
  1280.83        2500.00       0.175586E-003
  1279.30        2500.00                 NaN
  1277.78        2500.00       0.129158E-005
  1276.25        2500.00       0.695198E-006
  1274.72        2500.00       0.657328E-004
  1273.20        2500.00       0.978774E-004
  1271.67        2500.00                 NaN
  1270.14        2500.00                 NaN
  1268.62        2500.00       0.689663E-009
  1267.09        2500.00       0.823812E-004
  1265.57        2500.00       0.179439E-004
  1264.04        2500.00       0.146939E-005
  1262.51        2500.00       0.878903E-006
  1260.99        2500.00       0.413646E-004
  1259.46        2500.00       0.123368E-004
  1257.93        2500.00       0.164065E-005
  1256.41        2500.00       0.366300E-005
  1254.88        2500.00       0.270560E-004
  1253.36        2500.00       0.327359E-005
  1251.83        2500.00       0.623101E-005
  1250.30        2500.00                 NaN
  1248.78        2500.00                 NaN
  1247.25        2500.00       0.121041E-004
  1245.72        2500.00       0.414386E-005
  1244.20        2500.00                 NaN
  1242.67        2500.00                 NaN
  1241.15        2500.00                 NaN
  1239.62        2500.00                 NaN
  1238.09        2500.00                 NaN
  1236.57        2500.00       0.499050E-005
  1235.04        2500.00                 NaN
  1233.51        2500.00                 NaN
  1231.99        2500.00                 NaN
  1230.46        2500.00       0.605612E-005
  1228.94        2500.00                 NaN
  1227.41        2500.00                 NaN
  1225.88        2500.00                 NaN
  1224.36        2500.00       0.119969E-003
  1222.83        2500.00       0.511846E-004
  1221.30        2500.00       0.512588E-004
  1219.78        2500.00       0.512355E-004
  1218.25        2500.00       0.510964E-004
  1216.73        2500.00       0.513846E-004
  1215.20        2500.00       0.513375E-004
  1213.67        2500.00       0.512891E-004
  1212.15        2500.00       0.515321E-004
  1210.62        2500.00       0.513861E-004
  1209.09        2500.00       0.514241E-004
  1207.57        2500.00       0.513578E-004
  1206.04        2500.00       0.513985E-004
  1204.52        2500.00       0.514009E-004
  1202.99        2500.00       0.513568E-004
  1201.46        2500.00       0.513928E-004
  1199.94        2500.00       0.514290E-004
  1198.41        2500.00       0.513983E-004
  1196.89        2500.00       0.514475E-004
  1195.36        2500.00       0.515876E-004
  1193.83        2500.00       0.513934E-004
  1192.31        2500.00       0.515226E-004
  1190.78        2500.00       0.515800E-004
  1189.25        2500.00       0.511833E-004
  1187.73        2500.00       0.514962E-004
  1186.20        2500.00       0.511866E-004
  1184.68        2500.00       0.512141E-004
  1183.15        2500.00       0.510821E-004
  1181.62        2500.00       0.509897E-004
  1180.10        2500.00       0.507284E-004
  1178.57        2500.00       0.505998E-004
  1177.04        2500.00       0.503831E-004
  1175.52        2500.00       0.503901E-004
  1173.99        2500.00       0.501958E-004
  1172.47        2500.00       0.501514E-004
  1170.94        2500.00       0.499974E-004
  1169.41        2500.00       0.498981E-004
  1167.89        2500.00       0.498944E-004
  1166.36        2500.00       0.495957E-004
  1164.83        2500.00       0.494593E-004
  1163.31        2500.00       0.485947E-004
  1161.78        2500.00       0.485908E-004
  1160.26        2500.00       0.483682E-004
  1158.73        2500.00       0.483646E-004
  1157.20        2500.00       0.483610E-004
  1155.68        2500.00       0.483574E-004
  1154.15        2500.00       0.483539E-004
  1152.62        2500.00       0.484810E-004
  1151.10        2500.00       0.478402E-004
  1149.57        2500.00       0.478038E-004
  1148.05        2500.00       0.472714E-004
  1146.52        2500.00       0.467672E-004
  1144.99        2500.00       0.462433E-004
  1143.47        2500.00       0.457154E-004
  1141.94        2500.00       0.449413E-004
  1140.41        2500.00       0.445663E-004
  1138.89        2500.00       0.440348E-004
  1137.36        2500.00       0.429955E-004
  1135.84        2500.00       0.424444E-004
  1134.31        2500.00       0.424413E-004
  1132.78        2500.00       0.424382E-004
  1131.26        2500.00       0.412779E-004
  1129.73        2500.00       0.412748E-004
  1128.20        2500.00       0.405624E-004
  1126.68        2500.00       0.393222E-004
  1125.15        2500.00       0.386728E-004
  1123.63        2500.00       0.379517E-004
  1122.10        2500.00       0.372930E-004
  1120.57        2500.00       0.366889E-004
  1119.05        2500.00       0.359407E-004
  1117.52        2500.00       0.353970E-004
  1115.99        2500.00       0.346705E-004
  1114.47        2500.00       0.338156E-004
  1112.94        2500.00       0.331720E-004
  1111.42        2500.00       0.324242E-004
  1109.89        2500.00       0.316706E-004
  1108.36        2500.00       0.322880E-004
  1106.84        2500.00       0.322857E-004
  1105.31        2500.00       0.294342E-004
  1103.78        2500.00       0.283075E-004
  1102.26        2500.00       0.274477E-004
  1100.73        2500.00       0.269995E-004
  1099.21        2500.00       0.256620E-004
  1097.68        2500.00       0.247205E-004
  1096.15        2500.00       0.238009E-004
  1094.63        2500.00       0.233959E-004
  1093.10        2500.00       0.216499E-004
  1091.57        2500.00       0.216135E-004
  1090.05        2500.00       0.206928E-004
  1088.52        2500.00       0.197655E-004
  1087.00        2500.00       0.188275E-004
  1085.47        2500.00       0.178740E-004
  1083.94        2500.00       0.168772E-004
  1082.42        2500.00       0.158390E-004
  1080.89        2500.00       0.147820E-004
  1079.36        2500.00       0.137057E-004
  1077.84        2500.00       0.126097E-004
  1076.31        2500.00       0.114932E-004
  1074.79        2500.00       0.103557E-004
  1073.26        2500.00       0.856619E-005
  1071.73        2500.00       0.736670E-005
  1070.21        2500.00       0.611063E-005
  1068.68        2500.00       0.443079E-005
  1067.15        2500.00       0.270591E-005
  1065.63        2500.00       0.934508E-006
  1064.10        2500.00                 NaN
  1062.58        2500.00                 NaN
  1061.05        2500.00                 NaN
  1059.52        2500.00                 NaN
  1058.00        2500.00                 NaN
  1056.47        2500.00                 NaN
  1054.94        2500.00                 NaN
  1053.42        2500.00                 NaN
  1051.89        2500.00                 NaN
  1050.37        2500.00                 NaN
  1048.84        2500.00                 NaN
  1047.31        2500.00                 NaN
  1045.79        2500.00                 NaN
  1044.26        2500.00                 NaN
  1042.73        2500.00                 NaN
  1041.21        2500.00                 NaN
  1039.68        2500.00                 NaN
  1038.16        2500.00                 NaN
  1036.63        2500.00                 NaN
  1035.10        2500.00                 NaN
  1033.58        2500.00                 NaN
  1032.05        2500.00                 NaN
  1030.52        2500.00                 NaN
  1029.00        2500.00                 NaN
  1027.47        2500.00                 NaN
  1025.95        2500.00                 NaN
  1024.42        2500.00                 NaN
  1022.89        2500.00                 NaN
  1021.37        2500.00                 NaN
  1019.84        2500.00                 NaN
  1018.31        2500.00                 NaN
  1016.79        2500.00                 NaN
  1015.26        2500.00                 NaN
  1013.74        2500.00                 NaN
  1012.21        2500.00                 NaN
  1010.68        2500.00                 NaN
  1009.16        2500.00                 NaN
  1007.63        2500.00                 NaN
  1006.10        2500.00                 NaN
  1004.58        2500.00                 NaN
  1003.05        2500.00                 NaN
  1001.53        2500.00                 NaN
  1000.00        2500.00                 NaN
