|6.6.6
Archiving\03_Data\eqfrac/QFM_m4.5/WD94/WD94_6.tab                         
           1
T(K)    
  0.000000000000000E+000
  0.000000000000000E+000
           0
           3
T(K)           P(bar)         rho,kg/m3     
  1605.77        2500.00        3308.19     
  1604.25        2500.00        3258.60     
  1602.73        2500.00        3259.96     
  1601.22        2500.00        3259.81     
  1599.70        2500.00        3260.73     
  1598.18        2500.00        3260.63     
  1596.66        2500.00        3261.07     
  1595.14        2500.00        3262.47     
  1593.62        2500.00        3262.65     
  1592.11        2500.00        3263.25     
  1590.59        2500.00        3263.97     
  1589.07        2500.00        3263.90     
  1587.55        2500.00        3265.01     
  1586.03        2500.00        3264.19     
  1584.51        2500.00        3266.26     
  1583.00        2500.00        3266.31     
  1581.48        2500.00        3267.19     
  1579.96        2500.00        3267.27     
  1578.44        2500.00        3268.05     
  1576.92        2500.00        3268.72     
  1575.41        2500.00        3268.32     
  1573.89        2500.00        3269.91     
  1572.37        2500.00        3272.47     
  1570.85        2500.00        3269.57     
  1569.33        2500.00        3271.08     
  1567.81        2500.00        3272.16     
  1566.30        2500.00        3272.84     
  1564.78        2500.00        3272.40     
  1563.26        2500.00        3273.17     
  1561.74        2500.00        3273.79     
  1560.22        2500.00        3266.82     
  1558.71        2500.00        3285.54     
  1557.19        2500.00        3275.71     
  1555.67        2500.00        3275.56     
  1554.15        2500.00        3276.43     
  1552.63        2500.00        3276.37     
  1551.11        2500.00        3277.99     
  1549.60        2500.00        3278.06     
  1548.08        2500.00        3278.73     
  1546.56        2500.00        3278.86     
  1545.04        2500.00        3280.22     
  1543.52        2500.00        3280.11     
  1542.00        2500.00        3280.47     
  1540.49        2500.00        3281.41     
  1538.97        2500.00        3284.14     
  1537.45        2500.00        3282.53     
  1535.93        2500.00        3282.56     
  1534.41        2500.00        3282.43     
  1532.90        2500.00        3283.54     
  1531.38        2500.00        3280.58     
  1529.86        2500.00        3288.56     
  1528.34        2500.00        3285.11     
  1526.82        2500.00        3287.20     
  1525.30        2500.00        3283.27     
  1523.79        2500.00        3286.14     
  1522.27        2500.00        3287.38     
  1520.75        2500.00        3287.08     
  1519.23        2500.00        3287.58     
  1517.71        2500.00        3287.23     
  1516.19        2500.00        3288.63     
  1514.68        2500.00        3288.63     
  1513.16        2500.00        3287.87     
  1511.64        2500.00        3291.64     
  1510.12        2500.00        3290.09     
  1508.60        2500.00        3281.54     
  1507.09        2500.00        3266.12     
  1505.57        2500.00        2813.92     
  1504.05        2500.00        3267.53     
  1502.53        2500.00        3268.95     
  1501.01        2500.00        3268.89     
  1499.49        2500.00        3269.30     
  1497.98        2500.00        3270.67     
  1496.46        2500.00        3271.99     
  1494.94        2500.00        3272.88     
  1493.42        2500.00        3273.42     
  1491.90        2500.00        3274.09     
  1490.39        2500.00        3274.89     
  1488.87        2500.00        3276.12     
  1487.35        2500.00        3276.73     
  1485.83        2500.00        3277.65     
  1484.31        2500.00        3278.49     
  1482.79        2500.00        3279.62     
  1481.28        2500.00        3280.21     
  1479.76        2500.00        3280.58     
  1478.24        2500.00        3281.83     
  1476.72        2500.00        3282.41     
  1475.20        2500.00        3283.40     
  1473.68        2500.00        3269.89     
  1472.17        2500.00        3267.43     
  1470.65        2500.00        3268.68     
  1469.13        2500.00        3269.84     
  1467.61        2500.00        3270.93     
  1466.09        2500.00        3271.98     
  1464.58        2500.00        3273.03     
  1463.06        2500.00        3274.32     
  1461.54        2500.00        3275.54     
  1460.02        2500.00        3276.65     
  1458.50        2500.00        3277.72     
  1456.98        2500.00        3278.76     
  1455.47        2500.00        3280.09     
  1453.95        2500.00        3280.90     
  1452.43        2500.00        3281.81     
  1450.91        2500.00        3284.10     
  1449.39        2500.00        3284.69     
  1447.88        2500.00        3285.87     
  1446.36        2500.00        3287.05     
  1444.84        2500.00        3288.25     
  1443.32        2500.00        3289.24     
  1441.80        2500.00        3290.27     
  1440.28        2500.00        3291.89     
  1438.77        2500.00        3297.28     
  1437.25        2500.00        3293.87     
  1435.73        2500.00        3295.10     
  1434.21        2500.00        3223.62     
  1432.69        2500.00        3108.59     
  1431.17        2500.00        3110.10     
  1429.66        2500.00        3111.34     
  1428.14        2500.00        3117.54     
  1426.62        2500.00        3121.68     
  1425.10        2500.00        3123.44     
  1423.58        2500.00        3124.99     
  1422.07        2500.00        3126.84     
  1420.55        2500.00        3128.27     
  1419.03        2500.00        3129.96     
  1417.51        2500.00        3131.45     
  1415.99        2500.00        3132.98     
  1414.47        2500.00        3134.72     
  1412.96        2500.00        3136.30     
  1411.44        2500.00        3137.92     
  1409.92        2500.00        3139.73     
  1408.40        2500.00        3141.60     
  1406.88        2500.00        3143.00     
  1405.36        2500.00        3144.67     
  1403.85        2500.00        3145.86     
  1402.33        2500.00        3148.22     
  1400.81        2500.00        3149.68     
  1399.29        2500.00        3151.26     
  1397.77        2500.00        3152.89     
  1396.26        2500.00        3153.42     
  1394.74        2500.00        3156.34     
  1393.22        2500.00        3158.02     
  1391.70        2500.00        3159.54     
  1390.18        2500.00        3161.37     
  1388.66        2500.00        3162.86     
  1387.15        2500.00        3164.61     
  1385.63        2500.00        3166.17     
  1384.11        2500.00        3167.87     
  1382.59        2500.00        3169.63     
  1381.07        2500.00        3171.30     
  1379.56        2500.00        3172.64     
  1378.04        2500.00        3174.78     
  1376.52        2500.00        3176.32     
  1375.00        2500.00        3176.52     
  1373.48        2500.00        3180.35     
  1371.96        2500.00        3180.92     
  1370.45        2500.00        3181.90     
  1368.93        2500.00        3185.45     
  1367.41        2500.00        3185.95     
  1365.89        2500.00        3186.61     
  1364.37        2500.00        3189.36     
  1362.85        2500.00        3190.76     
  1361.34        2500.00        3192.63     
  1359.82        2500.00        3193.87     
  1358.30        2500.00        3195.69     
  1356.78        2500.00        3197.09     
  1355.26        2500.00        3198.64     
  1353.75        2500.00        3200.08     
  1352.23        2500.00        3201.51     
  1350.71        2500.00        3203.08     
  1349.19        2500.00        3204.55     
  1347.67        2500.00        3205.99     
  1346.15        2500.00        3207.41     
  1344.64        2500.00        3209.13     
  1343.12        2500.00        3210.31     
  1341.60        2500.00        3211.67     
  1340.08        2500.00        3213.09     
  1338.56        2500.00        3214.42     
  1337.04        2500.00        3215.62     
  1335.53        2500.00        3216.97     
  1334.01        2500.00        3218.15     
  1332.49        2500.00        3219.50     
  1330.97        2500.00        3220.63     
  1329.45        2500.00        3221.71     
  1327.94        2500.00        3216.74     
  1326.42        2500.00        3230.69     
  1324.90        2500.00        3225.24     
  1323.38        2500.00        3226.19     
  1321.86        2500.00        3225.87     
  1320.34        2500.00        3229.84     
  1318.83        2500.00        3229.22     
  1317.31        2500.00        3230.11     
  1315.79        2500.00        3231.07     
  1314.27        2500.00        2859.42     
  1312.75        2500.00        2782.79     
  1311.24        2500.00        2786.60     
  1309.72        2500.00        2789.95     
  1308.20        2500.00        2793.22     
  1306.68        2500.00        2796.56     
  1305.16        2500.00        2799.62     
  1303.64        2500.00        2802.63     
  1302.13        2500.00        2805.32     
  1300.61        2500.00        2808.15     
  1299.09        2500.00        2805.79     
  1297.57        2500.00        2819.14     
  1296.05        2500.00        2815.60     
  1294.53        2500.00        2828.37     
  1293.02        2500.00        2830.71     
  1291.50        2500.00        2834.73     
  1289.98        2500.00        2843.37     
  1288.46        2500.00        2789.26     
  1286.94        2500.00        2828.30     
  1285.43        2500.00        2824.97     
  1283.91        2500.00        2819.55     
  1282.39        2500.00        2812.93     
  1280.87        2500.00        2818.99     
  1279.35        2500.00                 NaN
  1277.83        2500.00                 NaN
  1276.32        2500.00                 NaN
  1274.80        2500.00                 NaN
  1273.28        2500.00                 NaN
  1271.76        2500.00                 NaN
  1270.24        2500.00                 NaN
  1268.73        2500.00                 NaN
  1267.21        2500.00                 NaN
  1265.69        2500.00                 NaN
  1264.17        2500.00                 NaN
  1262.65        2500.00                 NaN
  1261.13        2500.00                 NaN
  1259.62        2500.00                 NaN
  1258.10        2500.00                 NaN
  1256.58        2500.00                 NaN
  1255.06        2500.00                 NaN
  1253.54        2500.00                 NaN
  1252.02        2500.00                 NaN
  1250.51        2500.00                 NaN
  1248.99        2500.00                 NaN
  1247.47        2500.00                 NaN
  1245.95        2500.00                 NaN
  1244.43        2500.00                 NaN
  1242.92        2500.00                 NaN
  1241.40        2500.00                 NaN
  1239.88        2500.00                 NaN
  1238.36        2500.00                 NaN
  1236.84        2500.00                 NaN
  1235.32        2500.00                 NaN
  1233.81        2500.00                 NaN
  1232.29        2500.00                 NaN
  1230.77        2500.00                 NaN
  1229.25        2500.00                 NaN
  1227.73        2500.00                 NaN
  1226.21        2500.00                 NaN
  1224.70        2500.00                 NaN
  1223.18        2500.00                 NaN
  1221.66        2500.00                 NaN
  1220.14        2500.00                 NaN
  1218.62        2500.00                 NaN
  1217.11        2500.00                 NaN
  1215.59        2500.00                 NaN
  1214.07        2500.00                 NaN
  1212.55        2500.00                 NaN
  1211.03        2500.00                 NaN
  1209.51        2500.00                 NaN
  1208.00        2500.00                 NaN
  1206.48        2500.00                 NaN
  1204.96        2500.00                 NaN
  1203.44        2500.00                 NaN
  1201.92        2500.00                 NaN
  1200.41        2500.00                 NaN
  1198.89        2500.00                 NaN
  1197.37        2500.00                 NaN
  1195.85        2500.00                 NaN
  1194.33        2500.00                 NaN
  1192.81        2500.00                 NaN
  1191.30        2500.00                 NaN
  1189.78        2500.00                 NaN
  1188.26        2500.00                 NaN
  1186.74        2500.00                 NaN
  1185.22        2500.00                 NaN
  1183.70        2500.00                 NaN
  1182.19        2500.00                 NaN
  1180.67        2500.00                 NaN
  1179.15        2500.00                 NaN
  1177.63        2500.00                 NaN
  1176.11        2500.00                 NaN
  1174.60        2500.00                 NaN
  1173.08        2500.00                 NaN
  1171.56        2500.00                 NaN
  1170.04        2500.00                 NaN
  1168.52        2500.00                 NaN
  1167.00        2500.00                 NaN
  1165.49        2500.00                 NaN
  1163.97        2500.00                 NaN
  1162.45        2500.00                 NaN
  1160.93        2500.00                 NaN
  1159.41        2500.00                 NaN
  1157.89        2500.00                 NaN
  1156.38        2500.00                 NaN
  1154.86        2500.00                 NaN
  1153.34        2500.00                 NaN
  1151.82        2500.00                 NaN
  1150.30        2500.00                 NaN
  1148.79        2500.00                 NaN
  1147.27        2500.00                 NaN
  1145.75        2500.00                 NaN
  1144.23        2500.00                 NaN
  1142.71        2500.00                 NaN
  1141.19        2500.00                 NaN
  1139.68        2500.00                 NaN
  1138.16        2500.00                 NaN
  1136.64        2500.00                 NaN
  1135.12        2500.00                 NaN
  1133.60        2500.00                 NaN
  1132.09        2500.00                 NaN
  1130.57        2500.00                 NaN
  1129.05        2500.00                 NaN
  1127.53        2500.00                 NaN
  1126.01        2500.00                 NaN
  1124.49        2500.00                 NaN
  1122.98        2500.00                 NaN
  1121.46        2500.00                 NaN
  1119.94        2500.00                 NaN
  1118.42        2500.00                 NaN
  1116.90        2500.00                 NaN
  1115.38        2500.00                 NaN
  1113.87        2500.00                 NaN
  1112.35        2500.00                 NaN
  1110.83        2500.00                 NaN
  1109.31        2500.00                 NaN
  1107.79        2500.00                 NaN
  1106.28        2500.00                 NaN
  1104.76        2500.00                 NaN
  1103.24        2500.00                 NaN
  1101.72        2500.00                 NaN
  1100.20        2500.00                 NaN
  1098.68        2500.00                 NaN
  1097.17        2500.00                 NaN
  1095.65        2500.00                 NaN
  1094.13        2500.00                 NaN
  1092.61        2500.00                 NaN
  1091.09        2500.00                 NaN
  1089.58        2500.00                 NaN
  1088.06        2500.00                 NaN
  1086.54        2500.00                 NaN
  1085.02        2500.00                 NaN
  1083.50        2500.00                 NaN
  1081.98        2500.00                 NaN
  1080.47        2500.00                 NaN
  1078.95        2500.00                 NaN
  1077.43        2500.00                 NaN
  1075.91        2500.00                 NaN
  1074.39        2500.00                 NaN
  1072.87        2500.00                 NaN
  1071.36        2500.00                 NaN
  1069.84        2500.00                 NaN
  1068.32        2500.00                 NaN
  1066.80        2500.00                 NaN
  1065.28        2500.00                 NaN
  1063.77        2500.00                 NaN
  1062.25        2500.00                 NaN
  1060.73        2500.00                 NaN
  1059.21        2500.00                 NaN
  1057.69        2500.00                 NaN
  1056.17        2500.00                 NaN
  1054.66        2500.00                 NaN
  1053.14        2500.00                 NaN
  1051.62        2500.00                 NaN
  1050.10        2500.00                 NaN
  1048.58        2500.00                 NaN
  1047.06        2500.00                 NaN
  1045.55        2500.00                 NaN
  1044.03        2500.00                 NaN
  1042.51        2500.00                 NaN
  1040.99        2500.00                 NaN
  1039.47        2500.00                 NaN
  1037.96        2500.00                 NaN
  1036.44        2500.00                 NaN
  1034.92        2500.00                 NaN
  1033.40        2500.00                 NaN
  1031.88        2500.00                 NaN
  1030.36        2500.00                 NaN
  1028.85        2500.00                 NaN
  1027.33        2500.00                 NaN
  1025.81        2500.00                 NaN
  1024.29        2500.00                 NaN
  1022.77        2500.00                 NaN
  1021.26        2500.00                 NaN
  1019.74        2500.00                 NaN
  1018.22        2500.00                 NaN
  1016.70        2500.00                 NaN
  1015.18        2500.00                 NaN
  1013.66        2500.00                 NaN
  1012.15        2500.00                 NaN
  1010.63        2500.00                 NaN
  1009.11        2500.00                 NaN
  1007.59        2500.00                 NaN
  1006.07        2500.00                 NaN
  1004.55        2500.00                 NaN
  1003.04        2500.00                 NaN
  1001.52        2500.00                 NaN
  1000.00        2500.00                 NaN
