|6.6.6
Archiving\03_Data\eq/QFM_m1.25/TIS/TIS_2.tab                              
           1
T(K)    
  0.000000000000000E+000
  0.000000000000000E+000
           0
           3
T(K)           P(bar)         Sp(TH),kg     
  2000.00        2500.00                 NaN
  1996.79        2500.00                 NaN
  1993.59        2500.00                 NaN
  1990.38        2500.00                 NaN
  1987.18        2500.00                 NaN
  1983.97        2500.00                 NaN
  1980.77        2500.00                 NaN
  1977.56        2500.00                 NaN
  1974.36        2500.00                 NaN
  1971.15        2500.00                 NaN
  1967.95        2500.00                 NaN
  1964.74        2500.00                 NaN
  1961.54        2500.00                 NaN
  1958.33        2500.00                 NaN
  1955.13        2500.00                 NaN
  1951.92        2500.00                 NaN
  1948.72        2500.00                 NaN
  1945.51        2500.00                 NaN
  1942.31        2500.00                 NaN
  1939.10        2500.00                 NaN
  1935.90        2500.00                 NaN
  1932.69        2500.00                 NaN
  1929.49        2500.00                 NaN
  1926.28        2500.00                 NaN
  1923.08        2500.00                 NaN
  1919.87        2500.00                 NaN
  1916.67        2500.00                 NaN
  1913.46        2500.00                 NaN
  1910.26        2500.00                 NaN
  1907.05        2500.00                 NaN
  1903.85        2500.00                 NaN
  1900.64        2500.00                 NaN
  1897.44        2500.00                 NaN
  1894.23        2500.00                 NaN
  1891.03        2500.00                 NaN
  1887.82        2500.00                 NaN
  1884.62        2500.00                 NaN
  1881.41        2500.00                 NaN
  1878.21        2500.00                 NaN
  1875.00        2500.00                 NaN
  1871.79        2500.00                 NaN
  1868.59        2500.00                 NaN
  1865.38        2500.00                 NaN
  1862.18        2500.00                 NaN
  1858.97        2500.00                 NaN
  1855.77        2500.00                 NaN
  1852.56        2500.00                 NaN
  1849.36        2500.00                 NaN
  1846.15        2500.00                 NaN
  1842.95        2500.00                 NaN
  1839.74        2500.00                 NaN
  1836.54        2500.00                 NaN
  1833.33        2500.00                 NaN
  1830.13        2500.00                 NaN
  1826.92        2500.00                 NaN
  1823.72        2500.00                 NaN
  1820.51        2500.00                 NaN
  1817.31        2500.00                 NaN
  1814.10        2500.00                 NaN
  1810.90        2500.00                 NaN
  1807.69        2500.00                 NaN
  1804.49        2500.00                 NaN
  1801.28        2500.00                 NaN
  1798.08        2500.00                 NaN
  1794.87        2500.00                 NaN
  1791.67        2500.00                 NaN
  1788.46        2500.00                 NaN
  1785.26        2500.00                 NaN
  1782.05        2500.00                 NaN
  1778.85        2500.00                 NaN
  1775.64        2500.00                 NaN
  1772.44        2500.00                 NaN
  1769.23        2500.00                 NaN
  1766.03        2500.00                 NaN
  1762.82        2500.00                 NaN
  1759.62        2500.00                 NaN
  1756.41        2500.00                 NaN
  1753.21        2500.00                 NaN
  1750.00        2500.00                 NaN
  1746.79        2500.00                 NaN
  1743.59        2500.00                 NaN
  1740.38        2500.00                 NaN
  1737.18        2500.00                 NaN
  1733.97        2500.00                 NaN
  1730.77        2500.00                 NaN
  1727.56        2500.00                 NaN
  1724.36        2500.00                 NaN
  1721.15        2500.00                 NaN
  1717.95        2500.00                 NaN
  1714.74        2500.00                 NaN
  1711.54        2500.00                 NaN
  1708.33        2500.00                 NaN
  1705.13        2500.00                 NaN
  1701.92        2500.00                 NaN
  1698.72        2500.00                 NaN
  1695.51        2500.00       0.379318E-006
  1692.31        2500.00       0.164885E-004
  1689.10        2500.00       0.326565E-004
  1685.90        2500.00       0.488245E-004
  1682.69        2500.00       0.649925E-004
  1679.49        2500.00       0.811606E-004
  1676.28        2500.00       0.973286E-004
  1673.08        2500.00       0.113497E-003
  1669.87        2500.00       0.129665E-003
  1666.67        2500.00       0.145833E-003
  1663.46        2500.00       0.161037E-003
  1660.26        2500.00       0.176242E-003
  1657.05        2500.00       0.191446E-003
  1653.85        2500.00       0.206651E-003
  1650.64        2500.00       0.221855E-003
  1647.44        2500.00       0.237060E-003
  1644.23        2500.00       0.252265E-003
  1641.03        2500.00       0.267469E-003
  1637.82        2500.00       0.281733E-003
  1634.62        2500.00       0.295996E-003
  1631.41        2500.00       0.310259E-003
  1628.21        2500.00       0.324523E-003
  1625.00        2500.00       0.338786E-003
  1621.79        2500.00       0.353050E-003
  1618.59        2500.00       0.367313E-003
  1615.38        2500.00       0.381577E-003
  1612.18        2500.00       0.394642E-003
  1608.97        2500.00       0.407707E-003
  1605.77        2500.00       0.420772E-003
  1602.56        2500.00       0.433837E-003
  1599.36        2500.00       0.446902E-003
  1596.15        2500.00       0.459967E-003
  1592.95        2500.00       0.473032E-003
  1589.74        2500.00       0.486097E-003
  1586.54        2500.00       0.498273E-003
  1583.33        2500.00       0.510449E-003
  1580.13        2500.00       0.522625E-003
  1576.92        2500.00       0.534801E-003
  1573.72        2500.00       0.546445E-003
  1570.51        2500.00       0.558090E-003
  1567.31        2500.00       0.569200E-003
  1564.10        2500.00       0.575519E-003
  1560.90        2500.00       0.565468E-003
  1557.69        2500.00       0.555417E-003
  1554.49        2500.00       0.545365E-003
  1551.28        2500.00       0.535314E-003
  1548.08        2500.00       0.525262E-003
  1544.87        2500.00       0.515211E-003
  1541.67        2500.00       0.505160E-003
  1538.46        2500.00       0.495108E-003
  1535.26        2500.00       0.480081E-003
  1532.05        2500.00       0.465054E-003
  1528.85        2500.00       0.450026E-003
  1525.64        2500.00       0.434999E-003
  1522.44        2500.00       0.419972E-003
  1519.23        2500.00       0.404944E-003
  1516.03        2500.00       0.389917E-003
  1512.82        2500.00       0.374890E-003
  1509.62        2500.00       0.355283E-003
  1506.41        2500.00       0.335676E-003
  1503.21        2500.00       0.313917E-003
  1500.00        2500.00       0.292617E-003
  1496.79        2500.00       0.288051E-003
  1493.59        2500.00       0.283485E-003
  1490.38        2500.00       0.281265E-003
  1487.18        2500.00       0.324092E-003
  1483.97        2500.00       0.324092E-003
  1480.77        2500.00       0.324092E-003
  1477.56        2500.00       0.324092E-003
  1474.36        2500.00       0.324092E-003
  1471.15        2500.00       0.324092E-003
  1467.95        2500.00       0.324092E-003
  1464.74        2500.00       0.324092E-003
  1461.54        2500.00       0.648945E-003
  1458.33        2500.00       0.648945E-003
  1455.13        2500.00       0.648945E-003
  1451.92        2500.00       0.648945E-003
  1448.72        2500.00       0.648945E-003
  1445.51        2500.00       0.648945E-003
  1442.31        2500.00       0.648945E-003
  1439.10        2500.00       0.648945E-003
  1435.90        2500.00       0.878272E-003
  1432.69        2500.00       0.878272E-003
  1429.49        2500.00       0.878272E-003
  1426.28        2500.00       0.878272E-003
  1423.08        2500.00       0.978022E-003
  1419.87        2500.00       0.100262E-002
  1416.67        2500.00       0.103076E-002
  1413.46        2500.00       0.103076E-002
  1410.26        2500.00       0.107969E-002
  1407.05        2500.00       0.107969E-002
  1403.85        2500.00       0.107969E-002
  1400.64        2500.00       0.107969E-002
  1397.44        2500.00       0.107969E-002
  1394.23        2500.00       0.107969E-002
  1391.03        2500.00       0.107969E-002
  1387.82        2500.00       0.107969E-002
  1384.62        2500.00       0.120233E-002
  1381.41        2500.00       0.120233E-002
  1378.21        2500.00       0.120233E-002
  1375.00        2500.00       0.120233E-002
  1371.79        2500.00       0.120233E-002
  1368.59        2500.00       0.120233E-002
  1365.38        2500.00       0.120233E-002
  1362.18        2500.00       0.120233E-002
  1358.97        2500.00       0.126274E-002
  1355.77        2500.00       0.126274E-002
  1352.56        2500.00       0.126274E-002
  1349.36        2500.00       0.126274E-002
  1346.15        2500.00       0.126274E-002
  1342.95        2500.00       0.126274E-002
  1339.74        2500.00       0.126274E-002
  1336.54        2500.00       0.126274E-002
  1333.33        2500.00       0.129216E-002
  1330.13        2500.00       0.129437E-002
  1326.92        2500.00       0.129551E-002
  1323.72        2500.00       0.129551E-002
  1320.51        2500.00       0.128228E-002
  1317.31        2500.00       0.128228E-002
  1314.10        2500.00       0.128228E-002
  1310.90        2500.00       0.128228E-002
  1307.69        2500.00       0.125877E-002
  1304.49        2500.00       0.125877E-002
  1301.28        2500.00       0.125877E-002
  1298.08        2500.00       0.125877E-002
  1294.87        2500.00       0.125877E-002
  1291.67        2500.00       0.125877E-002
  1288.46        2500.00       0.125877E-002
  1285.26        2500.00       0.125877E-002
  1282.05        2500.00       0.122084E-002
  1278.85        2500.00       0.122084E-002
  1275.64        2500.00       0.122084E-002
  1272.44        2500.00       0.122084E-002
  1269.23        2500.00       0.122084E-002
  1266.03        2500.00       0.122084E-002
  1262.82        2500.00       0.122084E-002
  1259.62        2500.00       0.122084E-002
  1256.41        2500.00       0.119235E-002
  1253.21        2500.00       0.119235E-002
  1250.00        2500.00       0.119235E-002
  1246.79        2500.00       0.119235E-002
  1243.59        2500.00       0.119235E-002
  1240.38        2500.00       0.119235E-002
  1237.18        2500.00       0.119235E-002
  1233.97        2500.00       0.119235E-002
  1230.77        2500.00       0.117179E-002
  1227.56        2500.00       0.117179E-002
  1224.36        2500.00       0.117179E-002
  1221.15        2500.00       0.117179E-002
  1217.95        2500.00       0.117179E-002
  1214.74        2500.00       0.117179E-002
  1211.54        2500.00       0.117179E-002
  1208.33        2500.00       0.117179E-002
  1205.13        2500.00       0.115889E-002
  1201.92        2500.00       0.115889E-002
  1198.72        2500.00       0.115889E-002
  1195.51        2500.00       0.115889E-002
  1192.31        2500.00       0.115889E-002
  1189.10        2500.00       0.115889E-002
  1185.90        2500.00       0.115889E-002
  1182.69        2500.00       0.115889E-002
  1179.49        2500.00       0.115187E-002
  1176.28        2500.00       0.115187E-002
  1173.08        2500.00       0.115187E-002
  1169.87        2500.00       0.115187E-002
  1166.67        2500.00       0.115187E-002
  1163.46        2500.00       0.115187E-002
  1160.26        2500.00       0.115187E-002
  1157.05        2500.00       0.115187E-002
  1153.85        2500.00       0.115301E-002
  1150.64        2500.00       0.115301E-002
  1147.44        2500.00       0.115301E-002
  1144.23        2500.00       0.115301E-002
  1141.03        2500.00       0.115301E-002
  1137.82        2500.00       0.115301E-002
  1134.62        2500.00       0.115301E-002
  1131.41        2500.00       0.115301E-002
  1128.21        2500.00       0.115883E-002
  1125.00        2500.00       0.115883E-002
  1121.79        2500.00       0.115883E-002
  1118.59        2500.00       0.115883E-002
  1115.38        2500.00       0.115883E-002
  1112.18        2500.00       0.115883E-002
  1108.97        2500.00       0.115883E-002
  1105.77        2500.00       0.115883E-002
  1102.56        2500.00       0.116988E-002
  1099.36        2500.00       0.116988E-002
  1096.15        2500.00       0.116988E-002
  1092.95        2500.00       0.116988E-002
  1089.74        2500.00       0.116988E-002
  1086.54        2500.00       0.116988E-002
  1083.33        2500.00       0.116988E-002
  1080.13        2500.00       0.116988E-002
  1076.92        2500.00       0.118939E-002
  1073.72        2500.00       0.118939E-002
  1070.51        2500.00       0.118939E-002
  1067.31        2500.00       0.118939E-002
  1064.10        2500.00       0.118939E-002
  1060.90        2500.00       0.118939E-002
  1057.69        2500.00       0.118939E-002
  1054.49        2500.00       0.118939E-002
  1051.28        2500.00       0.121380E-002
  1048.08        2500.00       0.121380E-002
  1044.87        2500.00       0.121380E-002
  1041.67        2500.00       0.121380E-002
  1038.46        2500.00       0.121380E-002
  1035.26        2500.00       0.121380E-002
  1032.05        2500.00       0.121380E-002
  1028.85        2500.00       0.121380E-002
  1025.64        2500.00       0.124444E-002
  1022.44        2500.00       0.124444E-002
  1019.23        2500.00       0.124444E-002
  1016.03        2500.00       0.124444E-002
  1012.82        2500.00       0.124444E-002
  1009.62        2500.00       0.124444E-002
  1006.41        2500.00       0.124444E-002
  1003.21        2500.00       0.124444E-002
  1000.00        2500.00       0.128187E-002
