|6.6.6
Archiving\03_Data\Deqfrac/QFM_m0.25/WD94/WD94_2.tab                       
           1
T(K)    
  0.000000000000000E+000
  0.000000000000000E+000
           0
           3
T(K)           P(bar)         Sp(TH),kg     
  1625.00        2500.00                 NaN
  1623.43        2500.00                 NaN
  1621.87        2500.00                 NaN
  1620.30        2500.00                 NaN
  1618.73        2500.00                 NaN
  1617.17        2500.00                 NaN
  1615.60        2500.00                 NaN
  1614.04        2500.00                 NaN
  1612.47        2500.00                 NaN
  1610.90        2500.00                 NaN
  1609.34        2500.00                 NaN
  1607.77        2500.00                 NaN
  1606.20        2500.00                 NaN
  1604.64        2500.00                 NaN
  1603.07        2500.00                 NaN
  1601.50        2500.00                 NaN
  1599.94        2500.00                 NaN
  1598.37        2500.00                 NaN
  1596.80        2500.00                 NaN
  1595.24        2500.00                 NaN
  1593.67        2500.00                 NaN
  1592.11        2500.00                 NaN
  1590.54        2500.00                 NaN
  1588.97        2500.00                 NaN
  1587.41        2500.00                 NaN
  1585.84        2500.00                 NaN
  1584.27        2500.00                 NaN
  1582.71        2500.00                 NaN
  1581.14        2500.00                 NaN
  1579.57        2500.00                 NaN
  1578.01        2500.00                 NaN
  1576.44        2500.00                 NaN
  1574.87        2500.00                 NaN
  1573.31        2500.00                 NaN
  1571.74        2500.00                 NaN
  1570.18        2500.00                 NaN
  1568.61        2500.00                 NaN
  1567.04        2500.00                 NaN
  1565.48        2500.00                 NaN
  1563.91        2500.00                 NaN
  1562.34        2500.00                 NaN
  1560.78        2500.00                 NaN
  1559.21        2500.00                 NaN
  1557.64        2500.00                 NaN
  1556.08        2500.00                 NaN
  1554.51        2500.00                 NaN
  1552.94        2500.00                 NaN
  1551.38        2500.00                 NaN
  1549.81        2500.00                 NaN
  1548.25        2500.00                 NaN
  1546.68        2500.00                 NaN
  1545.11        2500.00                 NaN
  1543.55        2500.00                 NaN
  1541.98        2500.00                 NaN
  1540.41        2500.00                 NaN
  1538.85        2500.00                 NaN
  1537.28        2500.00                 NaN
  1535.71        2500.00                 NaN
  1534.15        2500.00                 NaN
  1532.58        2500.00                 NaN
  1531.02        2500.00                 NaN
  1529.45        2500.00                 NaN
  1527.88        2500.00                 NaN
  1526.32        2500.00                 NaN
  1524.75        2500.00                 NaN
  1523.18        2500.00                 NaN
  1521.62        2500.00                 NaN
  1520.05        2500.00                 NaN
  1518.48        2500.00                 NaN
  1516.92        2500.00                 NaN
  1515.35        2500.00                 NaN
  1513.78        2500.00                 NaN
  1512.22        2500.00                 NaN
  1510.65        2500.00                 NaN
  1509.09        2500.00                 NaN
  1507.52        2500.00                 NaN
  1505.95        2500.00                 NaN
  1504.39        2500.00                 NaN
  1502.82        2500.00                 NaN
  1501.25        2500.00                 NaN
  1499.69        2500.00                 NaN
  1498.12        2500.00                 NaN
  1496.55        2500.00                 NaN
  1494.99        2500.00                 NaN
  1493.42        2500.00                 NaN
  1491.85        2500.00                 NaN
  1490.29        2500.00                 NaN
  1488.72        2500.00                 NaN
  1487.16        2500.00                 NaN
  1485.59        2500.00                 NaN
  1484.02        2500.00                 NaN
  1482.46        2500.00                 NaN
  1480.89        2500.00                 NaN
  1479.32        2500.00                 NaN
  1477.76        2500.00                 NaN
  1476.19        2500.00                 NaN
  1474.62        2500.00                 NaN
  1473.06        2500.00                 NaN
  1471.49        2500.00                 NaN
  1469.92        2500.00                 NaN
  1468.36        2500.00                 NaN
  1466.79        2500.00                 NaN
  1465.23        2500.00                 NaN
  1463.66        2500.00                 NaN
  1462.09        2500.00                 NaN
  1460.53        2500.00                 NaN
  1458.96        2500.00                 NaN
  1457.39        2500.00                 NaN
  1455.83        2500.00                 NaN
  1454.26        2500.00                 NaN
  1452.69        2500.00                 NaN
  1451.13        2500.00                 NaN
  1449.56        2500.00                 NaN
  1447.99        2500.00                 NaN
  1446.43        2500.00                 NaN
  1444.86        2500.00                 NaN
  1443.30        2500.00                 NaN
  1441.73        2500.00                 NaN
  1440.16        2500.00                 NaN
  1438.60        2500.00                 NaN
  1437.03        2500.00                 NaN
  1435.46        2500.00                 NaN
  1433.90        2500.00                 NaN
  1432.33        2500.00                 NaN
  1430.76        2500.00                 NaN
  1429.20        2500.00                 NaN
  1427.63        2500.00                 NaN
  1426.07        2500.00                 NaN
  1424.50        2500.00                 NaN
  1422.93        2500.00                 NaN
  1421.37        2500.00                 NaN
  1419.80        2500.00                 NaN
  1418.23        2500.00                 NaN
  1416.67        2500.00                 NaN
  1415.10        2500.00                 NaN
  1413.53        2500.00                 NaN
  1411.97        2500.00                 NaN
  1410.40        2500.00                 NaN
  1408.83        2500.00                 NaN
  1407.27        2500.00                 NaN
  1405.70        2500.00                 NaN
  1404.14        2500.00                 NaN
  1402.57        2500.00                 NaN
  1401.00        2500.00                 NaN
  1399.44        2500.00                 NaN
  1397.87        2500.00                 NaN
  1396.30        2500.00                 NaN
  1394.74        2500.00                 NaN
  1393.17        2500.00                 NaN
  1391.60        2500.00                 NaN
  1390.04        2500.00                 NaN
  1388.47        2500.00                 NaN
  1386.90        2500.00                 NaN
  1385.34        2500.00                 NaN
  1383.77        2500.00                 NaN
  1382.21        2500.00                 NaN
  1380.64        2500.00                 NaN
  1379.07        2500.00                 NaN
  1377.51        2500.00                 NaN
  1375.94        2500.00                 NaN
  1374.37        2500.00                 NaN
  1372.81        2500.00                 NaN
  1371.24        2500.00                 NaN
  1369.67        2500.00                 NaN
  1368.11        2500.00                 NaN
  1366.54        2500.00                 NaN
  1364.97        2500.00                 NaN
  1363.41        2500.00                 NaN
  1361.84        2500.00                 NaN
  1360.28        2500.00                 NaN
  1358.71        2500.00                 NaN
  1357.14        2500.00                 NaN
  1355.58        2500.00                 NaN
  1354.01        2500.00                 NaN
  1352.44        2500.00       0.131829E-004
  1350.88        2500.00       0.174577E-004
  1349.31        2500.00       0.168292E-004
  1347.74        2500.00       0.162329E-004
  1346.18        2500.00       0.156593E-004
  1344.61        2500.00       0.151016E-004
  1343.05        2500.00       0.145432E-004
  1341.48        2500.00       0.140368E-004
  1339.91        2500.00       0.135251E-004
  1338.35        2500.00       0.130592E-004
  1336.78        2500.00       0.125952E-004
  1335.21        2500.00       0.121555E-004
  1333.65        2500.00       0.117346E-004
  1332.08        2500.00       0.113240E-004
  1330.51        2500.00       0.109357E-004
  1328.95        2500.00       0.105781E-004
  1327.38        2500.00       0.102189E-004
  1325.81        2500.00       0.987899E-005
  1324.25        2500.00       0.955074E-005
  1322.68        2500.00       0.923409E-005
  1321.12        2500.00       0.892896E-005
  1319.55        2500.00       0.862955E-005
  1317.98        2500.00       0.835920E-005
  1316.42        2500.00       0.808355E-005
  1314.85        2500.00       0.782579E-005
  1313.28        2500.00       0.757706E-005
  1311.72        2500.00       0.733097E-005
  1310.15        2500.00       0.709324E-005
  1308.58        2500.00       0.687481E-005
  1307.02        2500.00       0.666386E-005
  1305.45        2500.00       0.646085E-005
  1303.88        2500.00       0.624078E-005
  1302.32        2500.00       0.604843E-005
  1300.75        2500.00       0.585851E-005
  1299.19        2500.00       0.568216E-005
  1297.62        2500.00       0.550587E-005
  1296.05        2500.00       0.532703E-005
  1294.49        2500.00       0.516328E-005
  1292.92        2500.00       0.500735E-005
  1291.35        2500.00       0.203690E-004
  1289.79        2500.00       0.246973E-004
  1288.22        2500.00       0.183987E-004
  1286.65        2500.00       0.162631E-004
  1285.09        2500.00       0.108958E-004
  1283.52        2500.00       0.907656E-005
  1281.95        2500.00       0.717555E-005
  1280.39        2500.00       0.759052E-005
  1278.82        2500.00       0.482635E-005
  1277.26        2500.00       0.501119E-005
  1275.69        2500.00                 NaN
  1274.12        2500.00       0.815725E-005
  1272.56        2500.00       0.158242E-005
  1270.99        2500.00       0.331453E-006
  1269.42        2500.00       0.782012E-005
  1267.86        2500.00       0.260004E-005
  1266.29        2500.00       0.250804E-005
  1264.72        2500.00       0.248068E-005
  1263.16        2500.00       0.171245E-005
  1261.59        2500.00       0.262611E-005
  1260.03        2500.00       0.101953E-005
  1258.46        2500.00       0.150904E-005
  1256.89        2500.00       0.612340E-006
  1255.33        2500.00       0.263052E-005
  1253.76        2500.00       0.158887E-005
  1252.19        2500.00       0.133902E-005
  1250.63        2500.00       0.160461E-005
  1249.06        2500.00       0.938568E-006
  1247.49        2500.00       0.147882E-005
  1245.93        2500.00       0.102311E-005
  1244.36        2500.00       0.967599E-006
  1242.79        2500.00       0.515692E-006
  1241.23        2500.00       0.191384E-006
  1239.66        2500.00       0.351389E-006
  1238.10        2500.00       0.606505E-006
  1236.53        2500.00       0.197184E-005
  1234.96        2500.00       0.893516E-006
  1233.40        2500.00                 NaN
  1231.83        2500.00                 NaN
  1230.26        2500.00       0.518809E-005
  1228.70        2500.00       0.590273E-006
  1227.13        2500.00       0.189027E-005
  1225.56        2500.00       0.104339E-005
  1224.00        2500.00       0.879054E-005
  1222.43        2500.00       0.875303E-005
  1220.86        2500.00       0.875159E-005
  1219.30        2500.00       0.876601E-005
  1217.73        2500.00       0.880052E-005
  1216.17        2500.00       0.878026E-005
  1214.60        2500.00       0.878669E-005
  1213.03        2500.00       0.879256E-005
  1211.47        2500.00       0.876609E-005
  1209.90        2500.00       0.879309E-005
  1208.33        2500.00       0.901733E-005
  1206.77        2500.00       0.877663E-005
  1205.20        2500.00       0.882912E-005
  1203.63        2500.00       0.877632E-005
  1202.07        2500.00       0.879208E-005
  1200.50        2500.00       0.879077E-005
  1198.93        2500.00       0.878631E-005
  1197.37        2500.00       0.876577E-005
  1195.80        2500.00       0.875142E-005
  1194.24        2500.00       0.875329E-005
  1192.67        2500.00       0.873269E-005
  1191.10        2500.00       0.871203E-005
  1189.54        2500.00       0.868771E-005
  1187.97        2500.00       0.866391E-005
  1186.40        2500.00       0.863869E-005
  1184.84        2500.00       0.861401E-005
  1183.27        2500.00       0.858923E-005
  1181.70        2500.00       0.856881E-005
  1180.14        2500.00       0.854858E-005
  1178.57        2500.00       0.852828E-005
  1177.01        2500.00       0.850801E-005
  1175.44        2500.00       0.848783E-005
  1173.87        2500.00       0.846760E-005
  1172.31        2500.00       0.844701E-005
  1170.74        2500.00       0.842779E-005
  1169.17        2500.00       0.840934E-005
  1167.61        2500.00       0.838392E-005
  1166.04        2500.00       0.836334E-005
  1164.47        2500.00       0.834457E-005
  1162.91        2500.00       0.832817E-005
  1161.34        2500.00       0.831587E-005
  1159.77        2500.00       0.829820E-005
  1158.21        2500.00       0.830901E-005
  1156.64        2500.00       0.825662E-005
  1155.08        2500.00       0.823914E-005
  1153.51        2500.00       0.849445E-005
  1151.94        2500.00       0.820392E-005
  1150.38        2500.00       0.818764E-005
  1148.81        2500.00       0.820665E-005
  1147.24        2500.00       0.819025E-005
  1145.68        2500.00       0.816726E-005
  1144.11        2500.00       0.812134E-005
  1142.54        2500.00       0.811011E-005
  1140.98        2500.00       0.812404E-005
  1139.41        2500.00       0.810829E-005
  1137.84        2500.00       0.810237E-005
  1136.28        2500.00       0.804104E-005
  1134.71        2500.00       0.802475E-005
  1133.15        2500.00       0.800806E-005
  1131.58        2500.00       0.799531E-005
  1130.01        2500.00       0.797751E-005
  1128.45        2500.00       0.795917E-005
  1126.88        2500.00       0.794138E-005
  1125.31        2500.00       0.792561E-005
  1123.75        2500.00       0.791012E-005
  1122.18        2500.00       0.789487E-005
  1120.61        2500.00       0.787987E-005
  1119.05        2500.00       0.782546E-005
  1117.48        2500.00       0.772355E-005
  1115.91        2500.00       0.760864E-005
  1114.35        2500.00       0.750679E-005
  1112.78        2500.00       0.740947E-005
  1111.22        2500.00       0.730204E-005
  1109.65        2500.00       0.719057E-005
  1108.08        2500.00       0.690121E-005
  1106.52        2500.00       0.690121E-005
  1104.95        2500.00       0.685371E-005
  1103.38        2500.00       0.674104E-005
  1101.82        2500.00       0.662518E-005
  1100.25        2500.00       0.650651E-005
  1098.68        2500.00       0.674969E-005
  1097.12        2500.00       0.682269E-005
  1095.55        2500.00       0.613721E-005
  1093.98        2500.00       0.596598E-005
  1092.42        2500.00       0.582851E-005
  1090.85        2500.00       0.567498E-005
  1089.29        2500.00       0.551803E-005
  1087.72        2500.00       0.535786E-005
  1086.15        2500.00       0.519459E-005
  1084.59        2500.00       0.505734E-005
  1083.02        2500.00       0.485673E-005
  1081.45        2500.00       0.468253E-005
  1079.89        2500.00       0.451171E-005
  1078.32        2500.00       0.431258E-005
  1076.75        2500.00       0.415429E-005
  1075.19        2500.00       0.397116E-005
  1073.62        2500.00       0.378395E-005
  1072.06        2500.00       0.359207E-005
  1070.49        2500.00       0.359572E-005
  1068.92        2500.00       0.312948E-005
  1067.36        2500.00       0.270850E-005
  1065.79        2500.00       0.243217E-005
  1064.22        2500.00       0.214907E-005
  1062.66        2500.00       0.233704E-005
  1061.09        2500.00       0.211233E-005
  1059.52        2500.00       0.118133E-005
  1057.96        2500.00       0.828180E-006
  1056.39        2500.00       0.453702E-006
  1054.82        2500.00                 NaN
  1053.26        2500.00                 NaN
  1051.69        2500.00                 NaN
  1050.13        2500.00                 NaN
  1048.56        2500.00                 NaN
  1046.99        2500.00                 NaN
  1045.43        2500.00                 NaN
  1043.86        2500.00                 NaN
  1042.29        2500.00                 NaN
  1040.73        2500.00                 NaN
  1039.16        2500.00                 NaN
  1037.59        2500.00                 NaN
  1036.03        2500.00                 NaN
  1034.46        2500.00                 NaN
  1032.89        2500.00                 NaN
  1031.33        2500.00                 NaN
  1029.76        2500.00                 NaN
  1028.20        2500.00                 NaN
  1026.63        2500.00                 NaN
  1025.06        2500.00                 NaN
  1023.50        2500.00                 NaN
  1021.93        2500.00                 NaN
  1020.36        2500.00                 NaN
  1018.80        2500.00                 NaN
  1017.23        2500.00                 NaN
  1015.66        2500.00                 NaN
  1014.10        2500.00                 NaN
  1012.53        2500.00                 NaN
  1010.96        2500.00                 NaN
  1009.40        2500.00                 NaN
  1007.83        2500.00                 NaN
  1006.27        2500.00                 NaN
  1004.70        2500.00                 NaN
  1003.13        2500.00                 NaN
  1001.57        2500.00                 NaN
  1000.00        2500.00                 NaN
