|6.6.6
Archiving\03_Data\frac/QFM_m4/KHA22/KHA22_6.tab                           
           1
T(K)    
  0.000000000000000E+000
  0.000000000000000E+000
           0
           3
T(K)           P(bar)         rho,kg/m3     
  2000.00        2500.00        5154.70     
  1997.49        2500.00        5155.46     
  1994.99        2500.00        5156.21     
  1992.48        2500.00        5156.95     
  1989.97        2500.00        5157.70     
  1987.47        2500.00        5158.45     
  1984.96        2500.00        5159.20     
  1982.46        2500.00        5159.95     
  1979.95        2500.00        5160.70     
  1977.44        2500.00        5161.44     
  1974.94        2500.00        5162.19     
  1972.43        2500.00        5162.94     
  1969.92        2500.00        5163.68     
  1967.42        2500.00        5164.43     
  1964.91        2500.00        5165.17     
  1962.41        2500.00        5165.92     
  1959.90        2500.00        5166.66     
  1957.39        2500.00        5167.40     
  1954.89        2500.00        5168.15     
  1952.38        2500.00        5168.89     
  1949.87        2500.00        5169.63     
  1947.37        2500.00        5170.37     
  1944.86        2500.00        5171.12     
  1942.36        2500.00        5171.86     
  1939.85        2500.00        5172.60     
  1937.34        2500.00        5173.34     
  1934.84        2500.00        5174.08     
  1932.33        2500.00        5174.82     
  1929.82        2500.00        5175.56     
  1927.32        2500.00        5176.30     
  1924.81        2500.00        5177.03     
  1922.31        2500.00        4255.77     
  1919.80        2500.00        3140.95     
  1917.29        2500.00        3142.54     
  1914.79        2500.00        3143.87     
  1912.28        2500.00        3144.77     
  1909.77        2500.00        3146.40     
  1907.27        2500.00        3147.90     
  1904.76        2500.00        3149.18     
  1902.26        2500.00        3151.29     
  1899.75        2500.00        3152.39     
  1897.24        2500.00        3154.17     
  1894.74        2500.00        3154.93     
  1892.23        2500.00        3156.41     
  1889.72        2500.00        3155.07     
  1887.22        2500.00        3159.32     
  1884.71        2500.00        3160.81     
  1882.21        2500.00        3162.61     
  1879.70        2500.00        3174.33     
  1877.19        2500.00        2907.37     
  1874.69        2500.00        3172.67     
  1872.18        2500.00        3191.91     
  1869.67        2500.00        3193.74     
  1867.17        2500.00        3194.24     
  1864.66        2500.00        3196.31     
  1862.16        2500.00        3198.26     
  1859.65        2500.00        3199.39     
  1857.14        2500.00        3201.28     
  1854.64        2500.00        3202.54     
  1852.13        2500.00        3204.38     
  1849.62        2500.00        3205.62     
  1847.12        2500.00        3207.16     
  1844.61        2500.00        3208.91     
  1842.11        2500.00        3210.61     
  1839.60        2500.00        3212.16     
  1837.09        2500.00        3213.49     
  1834.59        2500.00        3215.06     
  1832.08        2500.00        3217.03     
  1829.57        2500.00        3218.40     
  1827.07        2500.00        3219.79     
  1824.56        2500.00        3221.75     
  1822.06        2500.00        3222.86     
  1819.55        2500.00        3224.07     
  1817.04        2500.00        3225.86     
  1814.54        2500.00        3227.15     
  1812.03        2500.00        3229.23     
  1809.52        2500.00        3230.58     
  1807.02        2500.00        3231.32     
  1804.51        2500.00        3234.03     
  1802.01        2500.00        3235.72     
  1799.50        2500.00        3236.89     
  1796.99        2500.00        3238.38     
  1794.49        2500.00        3239.98     
  1791.98        2500.00        3241.45     
  1789.47        2500.00        3242.92     
  1786.97        2500.00        3244.71     
  1784.46        2500.00        3249.38     
  1781.95        2500.00        3247.39     
  1779.45        2500.00        3249.46     
  1776.94        2500.00        3252.15     
  1774.44        2500.00        3252.25     
  1771.93        2500.00        3253.57     
  1769.42        2500.00        3255.08     
  1766.92        2500.00        3256.76     
  1764.41        2500.00        3258.18     
  1761.90        2500.00        3260.40     
  1759.40        2500.00        3264.20     
  1756.89        2500.00        3263.63     
  1754.39        2500.00        3264.31     
  1751.88        2500.00        3265.56     
  1749.37        2500.00        3267.43     
  1746.87        2500.00        3269.15     
  1744.36        2500.00        3319.56     
  1741.85        2500.00        3272.36     
  1739.35        2500.00        3273.54     
  1736.84        2500.00        3274.05     
  1734.34        2500.00        3276.60     
  1731.83        2500.00        3277.28     
  1729.32        2500.00        3280.72     
  1726.82        2500.00        3281.25     
  1724.31        2500.00        3284.43     
  1721.80        2500.00        3285.19     
  1719.30        2500.00        3285.36     
  1716.79        2500.00        3287.11     
  1714.29        2500.00        3288.31     
  1711.78        2500.00        3290.77     
  1709.27        2500.00        3291.13     
  1706.77        2500.00        3292.98     
  1704.26        2500.00        3294.36     
  1701.75        2500.00        3296.24     
  1699.25        2500.00        3297.62     
  1696.74        2500.00        3298.48     
  1694.24        2500.00        3298.92     
  1691.73        2500.00        3301.74     
  1689.22        2500.00        3303.33     
  1686.72        2500.00        3304.00     
  1684.21        2500.00        3305.61     
  1681.70        2500.00        3306.48     
  1679.20        2500.00        3307.66     
  1676.69        2500.00        3309.68     
  1674.19        2500.00        3311.64     
  1671.68        2500.00        3312.92     
  1669.17        2500.00        3313.33     
  1666.67        2500.00        3318.87     
  1664.16        2500.00        3315.94     
  1661.65        2500.00        3317.39     
  1659.15        2500.00        3318.90     
  1656.64        2500.00        3320.72     
  1654.14        2500.00        3322.27     
  1651.63        2500.00        3323.49     
  1649.12        2500.00        3324.49     
  1646.62        2500.00        3325.19     
  1644.11        2500.00        3326.87     
  1641.60        2500.00        3329.29     
  1639.10        2500.00        3240.18     
  1636.59        2500.00        3236.64     
  1634.09        2500.00        3237.78     
  1631.58        2500.00        3238.46     
  1629.07        2500.00        3239.50     
  1626.57        2500.00        3240.25     
  1624.06        2500.00        3241.26     
  1621.55        2500.00        3241.98     
  1619.05        2500.00        3242.93     
  1616.54        2500.00        3243.76     
  1614.04        2500.00        3244.65     
  1611.53        2500.00        3244.45     
  1609.02        2500.00        3245.91     
  1606.52        2500.00        3247.64     
  1604.01        2500.00        3247.96     
  1601.50        2500.00        3250.30     
  1599.00        2500.00        3249.92     
  1596.49        2500.00        3250.28     
  1593.98        2500.00        3251.31     
  1591.48        2500.00        3252.14     
  1588.97        2500.00        3252.97     
  1586.47        2500.00        3251.74     
  1583.96        2500.00        3254.24     
  1581.45        2500.00        3254.96     
  1578.95        2500.00        3256.29     
  1576.44        2500.00        3257.59     
  1573.93        2500.00        3257.80     
  1571.43        2500.00        3258.51     
  1568.92        2500.00        3259.14     
  1566.42        2500.00        3259.80     
  1563.91        2500.00        3260.65     
  1561.40        2500.00        3262.25     
  1558.90        2500.00        3261.99     
  1556.39        2500.00        3263.39     
  1553.88        2500.00        3263.65     
  1551.38        2500.00        3264.89     
  1548.87        2500.00        3265.75     
  1546.37        2500.00        3265.50     
  1543.86        2500.00        3267.03     
  1541.35        2500.00        3267.28     
  1538.85        2500.00        3268.46     
  1536.34        2500.00        3268.98     
  1533.83        2500.00        3270.11     
  1531.33        2500.00        3270.65     
  1528.82        2500.00        3271.26     
  1526.32        2500.00        3272.00     
  1523.81        2500.00        3272.48     
  1521.30        2500.00        3273.33     
  1518.80        2500.00        3274.14     
  1516.29        2500.00        3274.15     
  1513.78        2500.00        3258.05     
  1511.28        2500.00        3260.36     
  1508.77        2500.00        3254.97     
  1506.27        2500.00        3256.01     
  1503.76        2500.00        3257.41     
  1501.25        2500.00        3258.63     
  1498.75        2500.00        3260.87     
  1496.24        2500.00        3261.37     
  1493.73        2500.00        3269.61     
  1491.23        2500.00        3263.61     
  1488.72        2500.00        3264.91     
  1486.22        2500.00        3266.08     
  1483.71        2500.00        3267.87     
  1481.20        2500.00        3269.01     
  1478.70        2500.00        3270.33     
  1476.19        2500.00        3270.98     
  1473.68        2500.00        3272.51     
  1471.18        2500.00        3274.75     
  1468.67        2500.00        3276.01     
  1466.17        2500.00        3268.83     
  1463.66        2500.00        3262.60     
  1461.15        2500.00        3263.89     
  1458.65        2500.00        3265.75     
  1456.14        2500.00        3267.73     
  1453.63        2500.00        3269.00     
  1451.13        2500.00        3271.18     
  1448.62        2500.00        3272.79     
  1446.12        2500.00        3274.47     
  1443.61        2500.00        3276.53     
  1441.10        2500.00        3278.13     
  1438.60        2500.00        3280.12     
  1436.09        2500.00        3281.95     
  1433.58        2500.00        3283.61     
  1431.08        2500.00        3285.85     
  1428.57        2500.00        3217.70     
  1426.07        2500.00        3102.43     
  1423.56        2500.00        3104.40     
  1421.05        2500.00        3106.37     
  1418.55        2500.00        3108.22     
  1416.04        2500.00        3110.79     
  1413.53        2500.00        3120.22     
  1411.03        2500.00        3122.58     
  1408.52        2500.00        3124.83     
  1406.02        2500.00        3127.30     
  1403.51        2500.00        3129.55     
  1401.00        2500.00        3131.92     
  1398.50        2500.00        3134.26     
  1395.99        2500.00        3136.75     
  1393.48        2500.00        3139.01     
  1390.98        2500.00        3141.38     
  1388.47        2500.00        3143.92     
  1385.96        2500.00        3146.41     
  1383.46        2500.00        3148.51     
  1380.95        2500.00        3151.28     
  1378.45        2500.00        3153.47     
  1375.94        2500.00        3156.00     
  1373.43        2500.00        3158.19     
  1370.93        2500.00        3160.64     
  1368.42        2500.00        3163.04     
  1365.91        2500.00        3165.15     
  1363.41        2500.00        3168.10     
  1360.90        2500.00        3170.29     
  1358.40        2500.00        3172.49     
  1355.89        2500.00        3174.70     
  1353.38        2500.00        3177.12     
  1350.88        2500.00        3179.38     
  1348.37        2500.00        3181.14     
  1345.86        2500.00        3183.80     
  1343.36        2500.00        3185.22     
  1340.85        2500.00        3188.65     
  1338.35        2500.00        3190.28     
  1335.84        2500.00        3192.31     
  1333.33        2500.00        3194.24     
  1330.83        2500.00        3196.43     
  1328.32        2500.00        3198.53     
  1325.81        2500.00        3176.95     
  1323.31        2500.00        3248.28     
  1320.80        2500.00        3213.92     
  1318.30        2500.00        3216.50     
  1315.79        2500.00        2774.84     
  1313.28        2500.00        2775.77     
  1310.78        2500.00        2780.79     
  1308.27        2500.00        2785.71     
  1305.76        2500.00        2789.94     
  1303.26        2500.00        2794.26     
  1300.75        2500.00        2798.01     
  1298.25        2500.00        2801.61     
  1295.74        2500.00        2810.92     
  1293.23        2500.00        2823.53     
  1290.73        2500.00        2822.50     
  1288.22        2500.00        2826.65     
  1285.71        2500.00        2826.51     
  1283.21        2500.00        2825.75     
  1280.70        2500.00        2827.70     
  1278.20        2500.00        2826.91     
  1275.69        2500.00        2834.21     
  1273.18        2500.00        2823.73     
  1270.68        2500.00        2825.19     
  1268.17        2500.00        2833.35     
  1265.66        2500.00        2836.32     
  1263.16        2500.00        2833.27     
  1260.65        2500.00        2838.86     
  1258.15        2500.00        2831.13     
  1255.64        2500.00        2879.54     
  1253.13        2500.00        2757.99     
  1250.63        2500.00                 NaN
  1248.12        2500.00                 NaN
  1245.61        2500.00                 NaN
  1243.11        2500.00                 NaN
  1240.60        2500.00                 NaN
  1238.10        2500.00                 NaN
  1235.59        2500.00                 NaN
  1233.08        2500.00                 NaN
  1230.58        2500.00                 NaN
  1228.07        2500.00                 NaN
  1225.56        2500.00                 NaN
  1223.06        2500.00                 NaN
  1220.55        2500.00                 NaN
  1218.05        2500.00                 NaN
  1215.54        2500.00                 NaN
  1213.03        2500.00                 NaN
  1210.53        2500.00                 NaN
  1208.02        2500.00                 NaN
  1205.51        2500.00                 NaN
  1203.01        2500.00                 NaN
  1200.50        2500.00                 NaN
  1197.99        2500.00                 NaN
  1195.49        2500.00                 NaN
  1192.98        2500.00                 NaN
  1190.48        2500.00                 NaN
  1187.97        2500.00                 NaN
  1185.46        2500.00                 NaN
  1182.96        2500.00                 NaN
  1180.45        2500.00                 NaN
  1177.94        2500.00                 NaN
  1175.44        2500.00                 NaN
  1172.93        2500.00                 NaN
  1170.43        2500.00                 NaN
  1167.92        2500.00                 NaN
  1165.41        2500.00                 NaN
  1162.91        2500.00                 NaN
  1160.40        2500.00                 NaN
  1157.89        2500.00                 NaN
  1155.39        2500.00                 NaN
  1152.88        2500.00                 NaN
  1150.38        2500.00                 NaN
  1147.87        2500.00                 NaN
  1145.36        2500.00                 NaN
  1142.86        2500.00                 NaN
  1140.35        2500.00                 NaN
  1137.84        2500.00                 NaN
  1135.34        2500.00                 NaN
  1132.83        2500.00                 NaN
  1130.33        2500.00                 NaN
  1127.82        2500.00                 NaN
  1125.31        2500.00                 NaN
  1122.81        2500.00                 NaN
  1120.30        2500.00                 NaN
  1117.79        2500.00                 NaN
  1115.29        2500.00                 NaN
  1112.78        2500.00                 NaN
  1110.28        2500.00                 NaN
  1107.77        2500.00                 NaN
  1105.26        2500.00                 NaN
  1102.76        2500.00                 NaN
  1100.25        2500.00                 NaN
  1097.74        2500.00                 NaN
  1095.24        2500.00                 NaN
  1092.73        2500.00                 NaN
  1090.23        2500.00                 NaN
  1087.72        2500.00                 NaN
  1085.21        2500.00                 NaN
  1082.71        2500.00                 NaN
  1080.20        2500.00                 NaN
  1077.69        2500.00                 NaN
  1075.19        2500.00                 NaN
  1072.68        2500.00                 NaN
  1070.18        2500.00                 NaN
  1067.67        2500.00                 NaN
  1065.16        2500.00                 NaN
  1062.66        2500.00                 NaN
  1060.15        2500.00                 NaN
  1057.64        2500.00                 NaN
  1055.14        2500.00                 NaN
  1052.63        2500.00                 NaN
  1050.13        2500.00                 NaN
  1047.62        2500.00                 NaN
  1045.11        2500.00                 NaN
  1042.61        2500.00                 NaN
  1040.10        2500.00                 NaN
  1037.59        2500.00                 NaN
  1035.09        2500.00                 NaN
  1032.58        2500.00                 NaN
  1030.08        2500.00                 NaN
  1027.57        2500.00                 NaN
  1025.06        2500.00                 NaN
  1022.56        2500.00                 NaN
  1020.05        2500.00                 NaN
  1017.54        2500.00                 NaN
  1015.04        2500.00                 NaN
  1012.53        2500.00                 NaN
  1010.03        2500.00                 NaN
  1007.52        2500.00                 NaN
  1005.01        2500.00                 NaN
  1002.51        2500.00                 NaN
  1000.00        2500.00                 NaN
