|6.6.6
Archiving\03_Data\fracLP/QFM_m1.75/LAR/LAR_2.tab                          
           1
T(K)    
  0.000000000000000E+000
  0.000000000000000E+000
           0
           3
T(K)           P(bar)         Sp(TH),kg     
  2000.00        500.000                 NaN
  1997.49        500.000                 NaN
  1994.99        500.000                 NaN
  1992.48        500.000                 NaN
  1989.97        500.000                 NaN
  1987.47        500.000                 NaN
  1984.96        500.000                 NaN
  1982.46        500.000                 NaN
  1979.95        500.000                 NaN
  1977.44        500.000                 NaN
  1974.94        500.000                 NaN
  1972.43        500.000                 NaN
  1969.92        500.000                 NaN
  1967.42        500.000                 NaN
  1964.91        500.000                 NaN
  1962.41        500.000                 NaN
  1959.90        500.000                 NaN
  1957.39        500.000                 NaN
  1954.89        500.000                 NaN
  1952.38        500.000                 NaN
  1949.87        500.000                 NaN
  1947.37        500.000                 NaN
  1944.86        500.000                 NaN
  1942.36        500.000                 NaN
  1939.85        500.000                 NaN
  1937.34        500.000                 NaN
  1934.84        500.000                 NaN
  1932.33        500.000                 NaN
  1929.82        500.000                 NaN
  1927.32        500.000                 NaN
  1924.81        500.000                 NaN
  1922.31        500.000                 NaN
  1919.80        500.000                 NaN
  1917.29        500.000                 NaN
  1914.79        500.000                 NaN
  1912.28        500.000                 NaN
  1909.77        500.000                 NaN
  1907.27        500.000                 NaN
  1904.76        500.000                 NaN
  1902.26        500.000                 NaN
  1899.75        500.000                 NaN
  1897.24        500.000                 NaN
  1894.74        500.000                 NaN
  1892.23        500.000                 NaN
  1889.72        500.000                 NaN
  1887.22        500.000                 NaN
  1884.71        500.000                 NaN
  1882.21        500.000                 NaN
  1879.70        500.000                 NaN
  1877.19        500.000                 NaN
  1874.69        500.000                 NaN
  1872.18        500.000                 NaN
  1869.67        500.000                 NaN
  1867.17        500.000                 NaN
  1864.66        500.000                 NaN
  1862.16        500.000                 NaN
  1859.65        500.000                 NaN
  1857.14        500.000                 NaN
  1854.64        500.000                 NaN
  1852.13        500.000                 NaN
  1849.62        500.000                 NaN
  1847.12        500.000                 NaN
  1844.61        500.000                 NaN
  1842.11        500.000                 NaN
  1839.60        500.000                 NaN
  1837.09        500.000                 NaN
  1834.59        500.000                 NaN
  1832.08        500.000                 NaN
  1829.57        500.000                 NaN
  1827.07        500.000                 NaN
  1824.56        500.000                 NaN
  1822.06        500.000                 NaN
  1819.55        500.000                 NaN
  1817.04        500.000                 NaN
  1814.54        500.000                 NaN
  1812.03        500.000                 NaN
  1809.52        500.000                 NaN
  1807.02        500.000                 NaN
  1804.51        500.000                 NaN
  1802.01        500.000                 NaN
  1799.50        500.000                 NaN
  1796.99        500.000                 NaN
  1794.49        500.000                 NaN
  1791.98        500.000                 NaN
  1789.47        500.000                 NaN
  1786.97        500.000                 NaN
  1784.46        500.000                 NaN
  1781.95        500.000                 NaN
  1779.45        500.000                 NaN
  1776.94        500.000                 NaN
  1774.44        500.000                 NaN
  1771.93        500.000                 NaN
  1769.42        500.000                 NaN
  1766.92        500.000                 NaN
  1764.41        500.000                 NaN
  1761.90        500.000                 NaN
  1759.40        500.000                 NaN
  1756.89        500.000                 NaN
  1754.39        500.000                 NaN
  1751.88        500.000                 NaN
  1749.37        500.000                 NaN
  1746.87        500.000                 NaN
  1744.36        500.000                 NaN
  1741.85        500.000                 NaN
  1739.35        500.000                 NaN
  1736.84        500.000                 NaN
  1734.34        500.000                 NaN
  1731.83        500.000                 NaN
  1729.32        500.000                 NaN
  1726.82        500.000                 NaN
  1724.31        500.000                 NaN
  1721.80        500.000                 NaN
  1719.30        500.000                 NaN
  1716.79        500.000                 NaN
  1714.29        500.000                 NaN
  1711.78        500.000                 NaN
  1709.27        500.000                 NaN
  1706.77        500.000                 NaN
  1704.26        500.000                 NaN
  1701.75        500.000                 NaN
  1699.25        500.000                 NaN
  1696.74        500.000                 NaN
  1694.24        500.000                 NaN
  1691.73        500.000                 NaN
  1689.22        500.000                 NaN
  1686.72        500.000                 NaN
  1684.21        500.000                 NaN
  1681.70        500.000                 NaN
  1679.20        500.000                 NaN
  1676.69        500.000                 NaN
  1674.19        500.000                 NaN
  1671.68        500.000                 NaN
  1669.17        500.000                 NaN
  1666.67        500.000       0.147520E-005
  1664.16        500.000       0.125124E-004
  1661.65        500.000       0.124123E-004
  1659.15        500.000       0.123074E-004
  1656.64        500.000       0.121971E-004
  1654.14        500.000       0.120868E-004
  1651.63        500.000       0.120003E-004
  1649.12        500.000       0.118812E-004
  1646.62        500.000       0.117859E-004
  1644.11        500.000       0.116809E-004
  1641.60        500.000       0.116380E-004
  1639.10        500.000       0.114305E-004
  1636.59        500.000       0.113731E-004
  1634.09        500.000       0.112711E-004
  1631.58        500.000       0.111849E-004
  1629.07        500.000       0.110698E-004
  1626.57        500.000       0.109838E-004
  1624.06        500.000       0.108859E-004
  1621.55        500.000       0.108562E-004
  1619.05        500.000       0.114724E-004
  1616.54        500.000       0.114902E-004
  1614.04        500.000       0.113006E-004
  1611.53        500.000       0.112362E-004
  1609.02        500.000       0.111378E-004
  1606.52        500.000       0.109850E-004
  1604.01        500.000       0.108807E-004
  1601.50        500.000       0.107466E-004
  1599.00        500.000       0.106436E-004
  1596.49        500.000       0.106328E-004
  1593.98        500.000       0.103144E-004
  1591.48        500.000       0.102629E-004
  1588.97        500.000       0.102269E-004
  1586.47        500.000       0.100155E-004
  1583.96        500.000       0.993677E-005
  1581.45        500.000       0.983447E-005
  1578.95        500.000       0.971819E-005
  1576.44        500.000       0.108884E-004
  1573.93        500.000       0.821333E-005
  1571.43        500.000       0.940163E-005
  1568.92        500.000       0.925902E-005
  1566.42        500.000       0.916327E-005
  1563.91        500.000       0.904420E-005
  1561.40        500.000       0.894671E-005
  1558.90        500.000       0.885721E-005
  1556.39        500.000       0.117239E-004
  1553.88        500.000       0.567314E-005
  1551.38        500.000       0.851909E-005
  1548.87        500.000       0.841924E-005
  1546.37        500.000       0.832101E-005
  1543.86        500.000       0.821069E-005
  1541.35        500.000       0.807253E-005
  1538.85        500.000       0.802815E-005
  1536.34        500.000       0.791484E-005
  1533.83        500.000       0.781541E-005
  1531.33        500.000       0.771333E-005
  1528.82        500.000       0.762148E-005
  1526.32        500.000       0.751385E-005
  1523.81        500.000       0.743781E-005
  1521.30        500.000       0.968182E-005
  1518.80        500.000       0.487576E-005
  1516.29        500.000       0.714629E-005
  1513.78        500.000       0.705229E-005
  1511.28        500.000       0.695925E-005
  1508.77        500.000       0.688680E-005
  1506.27        500.000       0.676966E-005
  1503.76        500.000       0.892085E-005
  1501.25        500.000       0.437196E-005
  1498.75        500.000       0.655593E-005
  1496.24        500.000       0.640022E-005
  1493.73        500.000       0.634813E-005
  1491.23        500.000       0.545280E-005
  1488.72        500.000                 NaN
  1486.22        500.000                 NaN
  1483.71        500.000                 NaN
  1481.20        500.000                 NaN
  1478.70        500.000                 NaN
  1476.19        500.000                 NaN
  1473.68        500.000                 NaN
  1471.18        500.000                 NaN
  1468.67        500.000                 NaN
  1466.17        500.000                 NaN
  1463.66        500.000                 NaN
  1461.15        500.000                 NaN
  1458.65        500.000                 NaN
  1456.14        500.000       0.172926E-005
  1453.63        500.000                 NaN
  1451.13        500.000       0.520548E-005
  1448.62        500.000       0.503878E-005
  1446.12        500.000       0.399527E-005
  1443.61        500.000       0.239630E-005
  1441.10        500.000       0.223239E-005
  1438.60        500.000       0.205738E-005
  1436.09        500.000       0.190716E-005
  1433.58        500.000       0.176043E-005
  1431.08        500.000       0.161862E-005
  1428.57        500.000       0.148623E-005
  1426.07        500.000       0.136323E-005
  1423.56        500.000       0.122715E-005
  1421.05        500.000       0.111860E-005
  1418.55        500.000       0.101509E-005
  1416.04        500.000       0.915826E-006
  1413.53        500.000       0.824477E-006
  1411.03        500.000       0.745210E-006
  1408.52        500.000       0.639781E-006
  1406.02        500.000       0.556756E-006
  1403.51        500.000       0.484719E-006
  1401.00        500.000       0.408122E-006
  1398.50        500.000       0.339241E-006
  1395.99        500.000       0.273182E-006
  1393.48        500.000       0.213250E-006
  1390.98        500.000       0.152305E-006
  1388.47        500.000                 NaN
  1385.96        500.000                 NaN
  1383.46        500.000                 NaN
  1380.95        500.000                 NaN
  1378.45        500.000                 NaN
  1375.94        500.000                 NaN
  1373.43        500.000                 NaN
  1370.93        500.000                 NaN
  1368.42        500.000                 NaN
  1365.91        500.000                 NaN
  1363.41        500.000                 NaN
  1360.90        500.000                 NaN
  1358.40        500.000                 NaN
  1355.89        500.000                 NaN
  1353.38        500.000                 NaN
  1350.88        500.000                 NaN
  1348.37        500.000                 NaN
  1345.86        500.000                 NaN
  1343.36        500.000                 NaN
  1340.85        500.000                 NaN
  1338.35        500.000                 NaN
  1335.84        500.000                 NaN
  1333.33        500.000                 NaN
  1330.83        500.000                 NaN
  1328.32        500.000                 NaN
  1325.81        500.000                 NaN
  1323.31        500.000                 NaN
  1320.80        500.000                 NaN
  1318.30        500.000                 NaN
  1315.79        500.000                 NaN
  1313.28        500.000                 NaN
  1310.78        500.000                 NaN
  1308.27        500.000                 NaN
  1305.76        500.000                 NaN
  1303.26        500.000                 NaN
  1300.75        500.000                 NaN
  1298.25        500.000                 NaN
  1295.74        500.000                 NaN
  1293.23        500.000                 NaN
  1290.73        500.000                 NaN
  1288.22        500.000                 NaN
  1285.71        500.000                 NaN
  1283.21        500.000                 NaN
  1280.70        500.000                 NaN
  1278.20        500.000                 NaN
  1275.69        500.000                 NaN
  1273.18        500.000                 NaN
  1270.68        500.000                 NaN
  1268.17        500.000                 NaN
  1265.66        500.000                 NaN
  1263.16        500.000                 NaN
  1260.65        500.000                 NaN
  1258.15        500.000                 NaN
  1255.64        500.000                 NaN
  1253.13        500.000                 NaN
  1250.63        500.000                 NaN
  1248.12        500.000                 NaN
  1245.61        500.000                 NaN
  1243.11        500.000                 NaN
  1240.60        500.000                 NaN
  1238.10        500.000                 NaN
  1235.59        500.000                 NaN
  1233.08        500.000                 NaN
  1230.58        500.000                 NaN
  1228.07        500.000                 NaN
  1225.56        500.000                 NaN
  1223.06        500.000                 NaN
  1220.55        500.000                 NaN
  1218.05        500.000                 NaN
  1215.54        500.000                 NaN
  1213.03        500.000                 NaN
  1210.53        500.000                 NaN
  1208.02        500.000                 NaN
  1205.51        500.000                 NaN
  1203.01        500.000                 NaN
  1200.50        500.000                 NaN
  1197.99        500.000                 NaN
  1195.49        500.000                 NaN
  1192.98        500.000                 NaN
  1190.48        500.000                 NaN
  1187.97        500.000                 NaN
  1185.46        500.000                 NaN
  1182.96        500.000                 NaN
  1180.45        500.000                 NaN
  1177.94        500.000                 NaN
  1175.44        500.000                 NaN
  1172.93        500.000                 NaN
  1170.43        500.000                 NaN
  1167.92        500.000                 NaN
  1165.41        500.000                 NaN
  1162.91        500.000                 NaN
  1160.40        500.000                 NaN
  1157.89        500.000                 NaN
  1155.39        500.000                 NaN
  1152.88        500.000                 NaN
  1150.38        500.000                 NaN
  1147.87        500.000                 NaN
  1145.36        500.000                 NaN
  1142.86        500.000                 NaN
  1140.35        500.000                 NaN
  1137.84        500.000                 NaN
  1135.34        500.000                 NaN
  1132.83        500.000                 NaN
  1130.33        500.000                 NaN
  1127.82        500.000                 NaN
  1125.31        500.000                 NaN
  1122.81        500.000                 NaN
  1120.30        500.000                 NaN
  1117.79        500.000                 NaN
  1115.29        500.000                 NaN
  1112.78        500.000                 NaN
  1110.28        500.000                 NaN
  1107.77        500.000                 NaN
  1105.26        500.000                 NaN
  1102.76        500.000                 NaN
  1100.25        500.000                 NaN
  1097.74        500.000                 NaN
  1095.24        500.000                 NaN
  1092.73        500.000                 NaN
  1090.23        500.000                 NaN
  1087.72        500.000                 NaN
  1085.21        500.000                 NaN
  1082.71        500.000                 NaN
  1080.20        500.000                 NaN
  1077.69        500.000                 NaN
  1075.19        500.000                 NaN
  1072.68        500.000                 NaN
  1070.18        500.000                 NaN
  1067.67        500.000                 NaN
  1065.16        500.000                 NaN
  1062.66        500.000                 NaN
  1060.15        500.000                 NaN
  1057.64        500.000                 NaN
  1055.14        500.000                 NaN
  1052.63        500.000                 NaN
  1050.13        500.000                 NaN
  1047.62        500.000                 NaN
  1045.11        500.000                 NaN
  1042.61        500.000                 NaN
  1040.10        500.000                 NaN
  1037.59        500.000                 NaN
  1035.09        500.000                 NaN
  1032.58        500.000                 NaN
  1030.08        500.000                 NaN
  1027.57        500.000                 NaN
  1025.06        500.000                 NaN
  1022.56        500.000                 NaN
  1020.05        500.000                 NaN
  1017.54        500.000                 NaN
  1015.04        500.000                 NaN
  1012.53        500.000                 NaN
  1010.03        500.000                 NaN
  1007.52        500.000                 NaN
  1005.01        500.000                 NaN
  1002.51        500.000                 NaN
  1000.00        500.000                 NaN
