|6.6.6
Archiving\03_Data\fracLP/QFM_m1/LAR/LAR_4.tab                             
           1
T(K)    
  0.000000000000000E+000
  0.000000000000000E+000
           0
           3
T(K)           P(bar)         Sp(TH),m3     
  2000.00        500.000                 NaN
  1997.49        500.000                 NaN
  1994.99        500.000                 NaN
  1992.48        500.000                 NaN
  1989.97        500.000                 NaN
  1987.47        500.000                 NaN
  1984.96        500.000                 NaN
  1982.46        500.000                 NaN
  1979.95        500.000                 NaN
  1977.44        500.000                 NaN
  1974.94        500.000                 NaN
  1972.43        500.000                 NaN
  1969.92        500.000                 NaN
  1967.42        500.000                 NaN
  1964.91        500.000                 NaN
  1962.41        500.000                 NaN
  1959.90        500.000                 NaN
  1957.39        500.000                 NaN
  1954.89        500.000                 NaN
  1952.38        500.000                 NaN
  1949.87        500.000                 NaN
  1947.37        500.000                 NaN
  1944.86        500.000                 NaN
  1942.36        500.000                 NaN
  1939.85        500.000                 NaN
  1937.34        500.000                 NaN
  1934.84        500.000                 NaN
  1932.33        500.000                 NaN
  1929.82        500.000                 NaN
  1927.32        500.000                 NaN
  1924.81        500.000                 NaN
  1922.31        500.000                 NaN
  1919.80        500.000                 NaN
  1917.29        500.000                 NaN
  1914.79        500.000                 NaN
  1912.28        500.000                 NaN
  1909.77        500.000                 NaN
  1907.27        500.000                 NaN
  1904.76        500.000                 NaN
  1902.26        500.000                 NaN
  1899.75        500.000                 NaN
  1897.24        500.000                 NaN
  1894.74        500.000                 NaN
  1892.23        500.000                 NaN
  1889.72        500.000                 NaN
  1887.22        500.000                 NaN
  1884.71        500.000                 NaN
  1882.21        500.000                 NaN
  1879.70        500.000                 NaN
  1877.19        500.000                 NaN
  1874.69        500.000                 NaN
  1872.18        500.000                 NaN
  1869.67        500.000                 NaN
  1867.17        500.000                 NaN
  1864.66        500.000                 NaN
  1862.16        500.000                 NaN
  1859.65        500.000                 NaN
  1857.14        500.000                 NaN
  1854.64        500.000                 NaN
  1852.13        500.000                 NaN
  1849.62        500.000                 NaN
  1847.12        500.000                 NaN
  1844.61        500.000                 NaN
  1842.11        500.000                 NaN
  1839.60        500.000                 NaN
  1837.09        500.000                 NaN
  1834.59        500.000                 NaN
  1832.08        500.000                 NaN
  1829.57        500.000                 NaN
  1827.07        500.000                 NaN
  1824.56        500.000                 NaN
  1822.06        500.000                 NaN
  1819.55        500.000                 NaN
  1817.04        500.000                 NaN
  1814.54        500.000                 NaN
  1812.03        500.000                 NaN
  1809.52        500.000                 NaN
  1807.02        500.000                 NaN
  1804.51        500.000                 NaN
  1802.01        500.000                 NaN
  1799.50        500.000                 NaN
  1796.99        500.000                 NaN
  1794.49        500.000                 NaN
  1791.98        500.000                 NaN
  1789.47        500.000                 NaN
  1786.97        500.000                 NaN
  1784.46        500.000                 NaN
  1781.95        500.000                 NaN
  1779.45        500.000                 NaN
  1776.94        500.000                 NaN
  1774.44        500.000                 NaN
  1771.93        500.000                 NaN
  1769.42        500.000                 NaN
  1766.92        500.000                 NaN
  1764.41        500.000                 NaN
  1761.90        500.000                 NaN
  1759.40        500.000                 NaN
  1756.89        500.000                 NaN
  1754.39        500.000                 NaN
  1751.88        500.000                 NaN
  1749.37        500.000                 NaN
  1746.87        500.000                 NaN
  1744.36        500.000                 NaN
  1741.85        500.000                 NaN
  1739.35        500.000                 NaN
  1736.84        500.000                 NaN
  1734.34        500.000                 NaN
  1731.83        500.000                 NaN
  1729.32        500.000                 NaN
  1726.82        500.000                 NaN
  1724.31        500.000                 NaN
  1721.80        500.000                 NaN
  1719.30        500.000                 NaN
  1716.79        500.000                 NaN
  1714.29        500.000                 NaN
  1711.78        500.000                 NaN
  1709.27        500.000                 NaN
  1706.77        500.000                 NaN
  1704.26        500.000                 NaN
  1701.75        500.000                 NaN
  1699.25        500.000                 NaN
  1696.74        500.000                 NaN
  1694.24        500.000                 NaN
  1691.73        500.000                 NaN
  1689.22        500.000                 NaN
  1686.72        500.000                 NaN
  1684.21        500.000                 NaN
  1681.70        500.000                 NaN
  1679.20        500.000                 NaN
  1676.69        500.000                 NaN
  1674.19        500.000                 NaN
  1671.68        500.000                 NaN
  1669.17        500.000       0.144097E-003
  1666.67        500.000       0.285224E-003
  1664.16        500.000       0.279664E-003
  1661.65        500.000       0.278834E-003
  1659.15        500.000       0.276597E-003
  1656.64        500.000       0.274198E-003
  1654.14        500.000       0.271969E-003
  1651.63        500.000       0.441099E-003
  1649.12        500.000       0.958297E-004
  1646.62        500.000       0.563561E-003
  1644.11        500.000                 NaN
  1641.60        500.000       0.223391E-003
  1639.10        500.000       0.258279E-003
  1636.59        500.000       0.255729E-003
  1634.09        500.000       0.194614E-003
  1631.58        500.000       0.310038E-003
  1629.07        500.000       0.248655E-003
  1626.57        500.000       0.246808E-003
  1624.06        500.000       0.244567E-003
  1621.55        500.000       0.242242E-003
  1619.05        500.000       0.240188E-003
  1616.54        500.000       0.238219E-003
  1614.04        500.000       0.235892E-003
  1611.53        500.000       0.246921E-003
  1609.02        500.000       0.393135E-003
  1606.52        500.000       0.979488E-004
  1604.01        500.000       0.240968E-003
  1601.50        500.000       0.238806E-003
  1599.00        500.000       0.235432E-003
  1596.49        500.000       0.269881E-003
  1593.98        500.000       0.193709E-003
  1591.48        500.000       0.192397E-003
  1588.97        500.000       0.261650E-003
  1586.47        500.000       0.222883E-003
  1583.96        500.000       0.141120E-003
  1581.45        500.000       0.297048E-003
  1578.95        500.000       0.215588E-003
  1576.44        500.000       0.212832E-003
  1573.93        500.000       0.210506E-003
  1571.43        500.000       0.208708E-003
  1568.92        500.000       0.205454E-003
  1566.42        500.000       0.203134E-003
  1563.91        500.000       0.170553E-003
  1561.40        500.000       0.642388E-003
  1558.90        500.000       0.262510E-004
  1556.39        500.000                 NaN
  1553.88        500.000       0.134665E-003
  1551.38        500.000       0.189421E-003
  1548.87        500.000       0.188217E-003
  1546.37        500.000       0.182062E-003
  1543.86        500.000       0.181911E-003
  1541.35        500.000       0.179851E-003
  1538.85        500.000       0.177784E-003
  1536.34        500.000       0.180588E-003
  1533.83        500.000       0.123412E-003
  1531.33        500.000       0.215655E-003
  1528.82        500.000       0.168870E-003
  1526.32        500.000       0.167258E-003
  1523.81        500.000       0.163555E-003
  1521.30        500.000       0.162848E-003
  1518.80        500.000       0.160093E-003
  1516.29        500.000       0.158265E-003
  1513.78        500.000       0.157049E-003
  1511.28        500.000       0.154261E-003
  1508.77        500.000       0.151228E-003
  1506.27        500.000       0.150398E-003
  1503.76        500.000       0.148211E-003
  1501.25        500.000       0.146665E-003
  1498.75        500.000       0.354392E-003
  1496.24        500.000                 NaN
  1493.73        500.000       0.277297E-004
  1491.23        500.000                 NaN
  1488.72        500.000                 NaN
  1486.22        500.000                 NaN
  1483.71        500.000                 NaN
  1481.20        500.000                 NaN
  1478.70        500.000                 NaN
  1476.19        500.000                 NaN
  1473.68        500.000                 NaN
  1471.18        500.000                 NaN
  1468.67        500.000                 NaN
  1466.17        500.000                 NaN
  1463.66        500.000                 NaN
  1461.15        500.000                 NaN
  1458.65        500.000                 NaN
  1456.14        500.000                 NaN
  1453.63        500.000                 NaN
  1451.13        500.000                 NaN
  1448.62        500.000                 NaN
  1446.12        500.000                 NaN
  1443.61        500.000                 NaN
  1441.10        500.000                 NaN
  1438.60        500.000                 NaN
  1436.09        500.000                 NaN
  1433.58        500.000                 NaN
  1431.08        500.000                 NaN
  1428.57        500.000                 NaN
  1426.07        500.000                 NaN
  1423.56        500.000                 NaN
  1421.05        500.000       0.502971E-005
  1418.55        500.000       0.267891E-004
  1416.04        500.000       0.240471E-004
  1413.53        500.000       0.219306E-004
  1411.03        500.000       0.198960E-004
  1408.52        500.000       0.178035E-004
  1406.02        500.000       0.159038E-004
  1403.51        500.000       0.138870E-004
  1401.00        500.000       0.122642E-004
  1398.50        500.000       0.105212E-004
  1395.99        500.000       0.905087E-005
  1393.48        500.000       0.749212E-005
  1390.98        500.000       0.615603E-005
  1388.47        500.000       0.485228E-005
  1385.96        500.000       0.349054E-005
  1383.46        500.000                 NaN
  1380.95        500.000                 NaN
  1378.45        500.000                 NaN
  1375.94        500.000                 NaN
  1373.43        500.000                 NaN
  1370.93        500.000                 NaN
  1368.42        500.000                 NaN
  1365.91        500.000                 NaN
  1363.41        500.000                 NaN
  1360.90        500.000                 NaN
  1358.40        500.000                 NaN
  1355.89        500.000                 NaN
  1353.38        500.000                 NaN
  1350.88        500.000                 NaN
  1348.37        500.000                 NaN
  1345.86        500.000                 NaN
  1343.36        500.000                 NaN
  1340.85        500.000                 NaN
  1338.35        500.000                 NaN
  1335.84        500.000                 NaN
  1333.33        500.000                 NaN
  1330.83        500.000                 NaN
  1328.32        500.000                 NaN
  1325.81        500.000                 NaN
  1323.31        500.000                 NaN
  1320.80        500.000                 NaN
  1318.30        500.000                 NaN
  1315.79        500.000                 NaN
  1313.28        500.000                 NaN
  1310.78        500.000                 NaN
  1308.27        500.000                 NaN
  1305.76        500.000                 NaN
  1303.26        500.000                 NaN
  1300.75        500.000                 NaN
  1298.25        500.000                 NaN
  1295.74        500.000                 NaN
  1293.23        500.000                 NaN
  1290.73        500.000                 NaN
  1288.22        500.000       0.436118E-003
  1285.71        500.000       0.692354E-003
  1283.21        500.000       0.676985E-003
  1280.70        500.000       0.660322E-003
  1278.20        500.000       0.637849E-003
  1275.69        500.000       0.614765E-003
  1273.18        500.000       0.589153E-003
  1270.68        500.000       0.563535E-003
  1268.17        500.000       0.539037E-003
  1265.66        500.000       0.515076E-003
  1263.16        500.000       0.496932E-003
  1260.65        500.000       0.155744E-002
  1258.15        500.000                 NaN
  1255.64        500.000                 NaN
  1253.13        500.000                 NaN
  1250.63        500.000                 NaN
  1248.12        500.000                 NaN
  1245.61        500.000                 NaN
  1243.11        500.000                 NaN
  1240.60        500.000                 NaN
  1238.10        500.000                 NaN
  1235.59        500.000                 NaN
  1233.08        500.000                 NaN
  1230.58        500.000                 NaN
  1228.07        500.000                 NaN
  1225.56        500.000                 NaN
  1223.06        500.000                 NaN
  1220.55        500.000                 NaN
  1218.05        500.000                 NaN
  1215.54        500.000                 NaN
  1213.03        500.000                 NaN
  1210.53        500.000                 NaN
  1208.02        500.000                 NaN
  1205.51        500.000                 NaN
  1203.01        500.000                 NaN
  1200.50        500.000                 NaN
  1197.99        500.000                 NaN
  1195.49        500.000                 NaN
  1192.98        500.000                 NaN
  1190.48        500.000                 NaN
  1187.97        500.000                 NaN
  1185.46        500.000                 NaN
  1182.96        500.000                 NaN
  1180.45        500.000                 NaN
  1177.94        500.000                 NaN
  1175.44        500.000                 NaN
  1172.93        500.000                 NaN
  1170.43        500.000                 NaN
  1167.92        500.000                 NaN
  1165.41        500.000                 NaN
  1162.91        500.000                 NaN
  1160.40        500.000                 NaN
  1157.89        500.000                 NaN
  1155.39        500.000                 NaN
  1152.88        500.000                 NaN
  1150.38        500.000                 NaN
  1147.87        500.000                 NaN
  1145.36        500.000                 NaN
  1142.86        500.000                 NaN
  1140.35        500.000                 NaN
  1137.84        500.000                 NaN
  1135.34        500.000                 NaN
  1132.83        500.000                 NaN
  1130.33        500.000                 NaN
  1127.82        500.000                 NaN
  1125.31        500.000                 NaN
  1122.81        500.000                 NaN
  1120.30        500.000                 NaN
  1117.79        500.000                 NaN
  1115.29        500.000                 NaN
  1112.78        500.000                 NaN
  1110.28        500.000                 NaN
  1107.77        500.000                 NaN
  1105.26        500.000                 NaN
  1102.76        500.000                 NaN
  1100.25        500.000                 NaN
  1097.74        500.000                 NaN
  1095.24        500.000                 NaN
  1092.73        500.000                 NaN
  1090.23        500.000                 NaN
  1087.72        500.000                 NaN
  1085.21        500.000                 NaN
  1082.71        500.000                 NaN
  1080.20        500.000                 NaN
  1077.69        500.000                 NaN
  1075.19        500.000                 NaN
  1072.68        500.000                 NaN
  1070.18        500.000                 NaN
  1067.67        500.000                 NaN
  1065.16        500.000                 NaN
  1062.66        500.000                 NaN
  1060.15        500.000                 NaN
  1057.64        500.000                 NaN
  1055.14        500.000                 NaN
  1052.63        500.000                 NaN
  1050.13        500.000                 NaN
  1047.62        500.000                 NaN
  1045.11        500.000                 NaN
  1042.61        500.000                 NaN
  1040.10        500.000                 NaN
  1037.59        500.000                 NaN
  1035.09        500.000                 NaN
  1032.58        500.000                 NaN
  1030.08        500.000                 NaN
  1027.57        500.000                 NaN
  1025.06        500.000                 NaN
  1022.56        500.000                 NaN
  1020.05        500.000                 NaN
  1017.54        500.000                 NaN
  1015.04        500.000                 NaN
  1012.53        500.000                 NaN
  1010.03        500.000                 NaN
  1007.52        500.000                 NaN
  1005.01        500.000                 NaN
  1002.51        500.000                 NaN
  1000.00        500.000                 NaN
