|6.6.6
Archiving\03_Data\eqfrac/QFM_m4/YM20/YM20_6.tab                         
           1
T(K)    
  0.000000000000000E+000
  0.000000000000000E+000
           0
           3
T(K)           P(bar)         rho,kg/m3     
  1583.33        2500.00        3230.00     
  1581.87        2500.00        3231.89     
  1580.41        2500.00        3237.42     
  1578.94        2500.00        3238.04     
  1577.48        2500.00        3239.24     
  1576.02        2500.00        3239.13     
  1574.56        2500.00        3238.99     
  1573.10        2500.00        3234.22     
  1571.63        2500.00        3248.58     
  1570.17        2500.00        3240.71     
  1568.71        2500.00        3241.36     
  1567.25        2500.00        3240.96     
  1565.79        2500.00        3241.97     
  1564.32        2500.00        3242.93     
  1562.86        2500.00        3242.58     
  1561.40        2500.00        3243.08     
  1559.94        2500.00        3244.69     
  1558.48        2500.00        3243.73     
  1557.01        2500.00        3244.49     
  1555.55        2500.00        3244.69     
  1554.09        2500.00        3245.41     
  1552.63        2500.00        3245.05     
  1551.17        2500.00        3245.13     
  1549.70        2500.00        3245.49     
  1548.24        2500.00        3247.12     
  1546.78        2500.00        3246.56     
  1545.32        2500.00        3246.48     
  1543.86        2500.00        3247.16     
  1542.39        2500.00        3248.08     
  1540.93        2500.00        3247.69     
  1539.47        2500.00        3248.82     
  1538.01        2500.00        3247.82     
  1536.55        2500.00        3247.84     
  1535.08        2500.00        3249.14     
  1533.62        2500.00        3250.41     
  1532.16        2500.00        3249.68     
  1530.70        2500.00        3249.43     
  1529.24        2500.00        3251.82     
  1527.77        2500.00        3250.86     
  1526.31        2500.00        3251.42     
  1524.85        2500.00        3251.21     
  1523.39        2500.00        3252.02     
  1521.93        2500.00        3263.02     
  1520.46        2500.00        2791.86     
  1519.00        2500.00        3248.18     
  1517.54        2500.00        3247.31     
  1516.08        2500.00        3254.88     
  1514.62        2500.00        3255.74     
  1513.15        2500.00        3252.01     
  1511.69        2500.00        3254.83     
  1510.23        2500.00        3254.62     
  1508.77        2500.00        3255.15     
  1507.31        2500.00        3256.27     
  1505.85        2500.00        3255.85     
  1504.38        2500.00        3241.24     
  1502.92        2500.00        3234.98     
  1501.46        2500.00        3236.83     
  1500.00        2500.00        3236.61     
  1498.54        2500.00        3236.21     
  1497.07        2500.00        3245.84     
  1495.61        2500.00        3238.19     
  1494.15        2500.00        3239.78     
  1492.69        2500.00        3240.13     
  1491.23        2500.00        3240.32     
  1489.76        2500.00        3241.72     
  1488.30        2500.00        3242.12     
  1486.84        2500.00        3243.51     
  1485.38        2500.00        3241.53     
  1483.92        2500.00        3234.42     
  1482.45        2500.00        3235.51     
  1480.99        2500.00        3236.53     
  1479.53        2500.00        3237.46     
  1478.07        2500.00        3238.41     
  1476.61        2500.00        3239.05     
  1475.14        2500.00        3240.39     
  1473.68        2500.00        3240.93     
  1472.22        2500.00        3242.36     
  1470.76        2500.00        3243.34     
  1469.30        2500.00        3243.72     
  1467.83        2500.00        3245.31     
  1466.37        2500.00        3246.13     
  1464.91        2500.00        3246.86     
  1463.45        2500.00        3248.01     
  1461.99        2500.00        3248.76     
  1460.52        2500.00        3249.78     
  1459.06        2500.00        3250.44     
  1457.60        2500.00        3249.29     
  1456.14        2500.00        3253.10     
  1454.68        2500.00        3253.42     
  1453.21        2500.00        3254.66     
  1451.75        2500.00        3255.34     
  1450.29        2500.00        3256.70     
  1448.83        2500.00        3257.67     
  1447.37        2500.00        3259.58     
  1445.90        2500.00        3259.72     
  1444.44        2500.00        3260.73     
  1442.98        2500.00        3104.99     
  1441.52        2500.00        3084.67     
  1440.06        2500.00        3085.78     
  1438.59        2500.00        3088.45     
  1437.13        2500.00        3090.33     
  1435.67        2500.00        3091.51     
  1434.21        2500.00        3092.67     
  1432.75        2500.00        3093.82     
  1431.28        2500.00        3095.18     
  1429.82        2500.00        3096.44     
  1428.36        2500.00        3097.70     
  1426.90        2500.00        3099.01     
  1425.44        2500.00        3100.05     
  1423.97        2500.00        3101.25     
  1422.51        2500.00        3102.50     
  1421.05        2500.00        3103.66     
  1419.59        2500.00        3104.53     
  1418.13        2500.00        3106.29     
  1416.66        2500.00        3107.50     
  1415.20        2500.00        3108.76     
  1413.74        2500.00        3109.15     
  1412.28        2500.00        3111.70     
  1410.82        2500.00        3111.54     
  1409.35        2500.00        3113.72     
  1407.89        2500.00        3114.36     
  1406.43        2500.00        3116.24     
  1404.97        2500.00        3117.63     
  1403.51        2500.00        3118.68     
  1402.04        2500.00        3119.85     
  1400.58        2500.00        3120.74     
  1399.12        2500.00        3122.13     
  1397.66        2500.00        3123.84     
  1396.20        2500.00        3124.92     
  1394.73        2500.00        3126.14     
  1393.27        2500.00        3127.28     
  1391.81        2500.00        3128.58     
  1390.35        2500.00        3131.11     
  1388.89        2500.00        3131.97     
  1387.42        2500.00        3133.95     
  1385.96        2500.00        3132.20     
  1384.50        2500.00        3134.98     
  1383.04        2500.00        3135.96     
  1381.58        2500.00        3137.28     
  1380.11        2500.00        3138.81     
  1378.65        2500.00        3140.02     
  1377.19        2500.00        3141.13     
  1375.73        2500.00        3142.39     
  1374.27        2500.00        3143.73     
  1372.80        2500.00        3144.99     
  1371.34        2500.00        3146.17     
  1369.88        2500.00        3147.48     
  1368.42        2500.00        3149.24     
  1366.96        2500.00        3150.12     
  1365.49        2500.00        3151.27     
  1364.03        2500.00        3152.77     
  1362.57        2500.00        3153.71     
  1361.11        2500.00        3154.81     
  1359.65        2500.00        3155.90     
  1358.19        2500.00        3157.96     
  1356.72        2500.00        3158.70     
  1355.26        2500.00        3159.91     
  1353.80        2500.00        3161.02     
  1352.34        2500.00        3162.34     
  1350.88        2500.00        3163.39     
  1349.41        2500.00        3164.69     
  1347.95        2500.00        3165.87     
  1346.49        2500.00        3167.06     
  1345.03        2500.00        3168.21     
  1343.57        2500.00        3169.37     
  1342.10        2500.00        3170.54     
  1340.64        2500.00        3171.56     
  1339.18        2500.00        3172.61     
  1337.72        2500.00        3174.04     
  1336.26        2500.00        3174.81     
  1334.79        2500.00        3176.22     
  1333.33        2500.00        3177.09     
  1331.87        2500.00        3177.96     
  1330.41        2500.00        3179.23     
  1328.95        2500.00        3180.20     
  1327.48        2500.00        3180.99     
  1326.02        2500.00        3182.20     
  1324.56        2500.00        3183.08     
  1323.10        2500.00        3184.16     
  1321.64        2500.00        3185.08     
  1320.17        2500.00        3185.96     
  1318.71        2500.00        3186.88     
  1317.25        2500.00        2781.82     
  1315.79        2500.00        2761.53     
  1314.33        2500.00        2762.58     
  1312.86        2500.00        2765.22     
  1311.40        2500.00        2767.50     
  1309.94        2500.00        2770.01     
  1308.48        2500.00        2772.22     
  1307.02        2500.00        2774.26     
  1305.55        2500.00        2776.49     
  1304.09        2500.00        2778.61     
  1302.63        2500.00        2780.42     
  1301.17        2500.00        2783.23     
  1299.71        2500.00        2785.14     
  1298.24        2500.00        2791.38     
  1296.78        2500.00        2791.50     
  1295.32        2500.00        2790.95     
  1293.86        2500.00        2813.98     
  1292.40        2500.00        2816.10     
  1290.93        2500.00        2817.52     
  1289.47        2500.00        2819.07     
  1288.01        2500.00        2818.38     
  1286.55        2500.00        2821.64     
  1285.09        2500.00        2822.18     
  1283.62        2500.00        2824.08     
  1282.16        2500.00        2827.41     
  1280.70        2500.00        2835.40     
  1279.24        2500.00        2825.65     
  1277.78        2500.00        2832.55     
  1276.31        2500.00        2835.29     
  1274.85        2500.00        2835.00     
  1273.39        2500.00        2835.03     
  1271.93        2500.00        2837.49     
  1270.47        2500.00        2826.45     
  1269.00        2500.00        2855.21     
  1267.54        2500.00        2841.30     
  1266.08        2500.00        2838.76     
  1264.62        2500.00        2841.51     
  1263.16        2500.00        2834.74     
  1261.69        2500.00        2743.03     
  1260.23        2500.00        3526.03     
  1258.77        2500.00        3099.77     
  1257.31        2500.00        2757.40     
  1255.85        2500.00        2764.97     
  1254.38        2500.00        2733.54     
  1252.92        2500.00        2747.06     
  1251.46        2500.00        2750.55     
  1250.00        2500.00                 NaN
  1248.54        2500.00                 NaN
  1247.07        2500.00                 NaN
  1245.61        2500.00                 NaN
  1244.15        2500.00                 NaN
  1242.69        2500.00                 NaN
  1241.23        2500.00                 NaN
  1239.76        2500.00                 NaN
  1238.30        2500.00                 NaN
  1236.84        2500.00                 NaN
  1235.38        2500.00                 NaN
  1233.92        2500.00                 NaN
  1232.45        2500.00                 NaN
  1230.99        2500.00                 NaN
  1229.53        2500.00                 NaN
  1228.07        2500.00                 NaN
  1226.61        2500.00                 NaN
  1225.14        2500.00                 NaN
  1223.68        2500.00                 NaN
  1222.22        2500.00                 NaN
  1220.76        2500.00                 NaN
  1219.30        2500.00                 NaN
  1217.84        2500.00                 NaN
  1216.37        2500.00                 NaN
  1214.91        2500.00                 NaN
  1213.45        2500.00                 NaN
  1211.99        2500.00                 NaN
  1210.53        2500.00                 NaN
  1209.06        2500.00                 NaN
  1207.60        2500.00                 NaN
  1206.14        2500.00                 NaN
  1204.68        2500.00                 NaN
  1203.22        2500.00                 NaN
  1201.75        2500.00                 NaN
  1200.29        2500.00                 NaN
  1198.83        2500.00                 NaN
  1197.37        2500.00                 NaN
  1195.91        2500.00                 NaN
  1194.44        2500.00                 NaN
  1192.98        2500.00                 NaN
  1191.52        2500.00                 NaN
  1190.06        2500.00                 NaN
  1188.60        2500.00                 NaN
  1187.13        2500.00                 NaN
  1185.67        2500.00                 NaN
  1184.21        2500.00                 NaN
  1182.75        2500.00                 NaN
  1181.29        2500.00                 NaN
  1179.82        2500.00                 NaN
  1178.36        2500.00                 NaN
  1176.90        2500.00                 NaN
  1175.44        2500.00                 NaN
  1173.98        2500.00                 NaN
  1172.51        2500.00                 NaN
  1171.05        2500.00                 NaN
  1169.59        2500.00                 NaN
  1168.13        2500.00                 NaN
  1166.67        2500.00                 NaN
  1165.20        2500.00                 NaN
  1163.74        2500.00                 NaN
  1162.28        2500.00                 NaN
  1160.82        2500.00                 NaN
  1159.36        2500.00                 NaN
  1157.89        2500.00                 NaN
  1156.43        2500.00                 NaN
  1154.97        2500.00                 NaN
  1153.51        2500.00                 NaN
  1152.05        2500.00                 NaN
  1150.58        2500.00                 NaN
  1149.12        2500.00                 NaN
  1147.66        2500.00                 NaN
  1146.20        2500.00                 NaN
  1144.74        2500.00                 NaN
  1143.27        2500.00                 NaN
  1141.81        2500.00                 NaN
  1140.35        2500.00                 NaN
  1138.89        2500.00                 NaN
  1137.43        2500.00                 NaN
  1135.96        2500.00                 NaN
  1134.50        2500.00                 NaN
  1133.04        2500.00                 NaN
  1131.58        2500.00                 NaN
  1130.12        2500.00                 NaN
  1128.65        2500.00                 NaN
  1127.19        2500.00                 NaN
  1125.73        2500.00                 NaN
  1124.27        2500.00                 NaN
  1122.81        2500.00                 NaN
  1121.34        2500.00                 NaN
  1119.88        2500.00                 NaN
  1118.42        2500.00                 NaN
  1116.96        2500.00                 NaN
  1115.50        2500.00                 NaN
  1114.03        2500.00                 NaN
  1112.57        2500.00                 NaN
  1111.11        2500.00                 NaN
  1109.65        2500.00                 NaN
  1108.19        2500.00                 NaN
  1106.72        2500.00                 NaN
  1105.26        2500.00                 NaN
  1103.80        2500.00                 NaN
  1102.34        2500.00                 NaN
  1100.88        2500.00                 NaN
  1099.41        2500.00                 NaN
  1097.95        2500.00                 NaN
  1096.49        2500.00                 NaN
  1095.03        2500.00                 NaN
  1093.57        2500.00                 NaN
  1092.10        2500.00                 NaN
  1090.64        2500.00                 NaN
  1089.18        2500.00                 NaN
  1087.72        2500.00                 NaN
  1086.26        2500.00                 NaN
  1084.79        2500.00                 NaN
  1083.33        2500.00                 NaN
  1081.87        2500.00                 NaN
  1080.41        2500.00                 NaN
  1078.95        2500.00                 NaN
  1077.48        2500.00                 NaN
  1076.02        2500.00                 NaN
  1074.56        2500.00                 NaN
  1073.10        2500.00                 NaN
  1071.64        2500.00                 NaN
  1070.18        2500.00                 NaN
  1068.71        2500.00                 NaN
  1067.25        2500.00                 NaN
  1065.79        2500.00                 NaN
  1064.33        2500.00                 NaN
  1062.87        2500.00                 NaN
  1061.40        2500.00                 NaN
  1059.94        2500.00                 NaN
  1058.48        2500.00                 NaN
  1057.02        2500.00                 NaN
  1055.56        2500.00                 NaN
  1054.09        2500.00                 NaN
  1052.63        2500.00                 NaN
  1051.17        2500.00                 NaN
  1049.71        2500.00                 NaN
  1048.25        2500.00                 NaN
  1046.78        2500.00                 NaN
  1045.32        2500.00                 NaN
  1043.86        2500.00                 NaN
  1042.40        2500.00                 NaN
  1040.94        2500.00                 NaN
  1039.47        2500.00                 NaN
  1038.01        2500.00                 NaN
  1036.55        2500.00                 NaN
  1035.09        2500.00                 NaN
  1033.63        2500.00                 NaN
  1032.16        2500.00                 NaN
  1030.70        2500.00                 NaN
  1029.24        2500.00                 NaN
  1027.78        2500.00                 NaN
  1026.32        2500.00                 NaN
  1024.85        2500.00                 NaN
  1023.39        2500.00                 NaN
  1021.93        2500.00                 NaN
  1020.47        2500.00                 NaN
  1019.01        2500.00                 NaN
  1017.54        2500.00                 NaN
  1016.08        2500.00                 NaN
  1014.62        2500.00                 NaN
  1013.16        2500.00                 NaN
  1011.70        2500.00                 NaN
  1010.23        2500.00                 NaN
  1008.77        2500.00                 NaN
  1007.31        2500.00                 NaN
  1005.85        2500.00                 NaN
  1004.39        2500.00                 NaN
  1002.92        2500.00                 NaN
  1001.46        2500.00                 NaN
  1000.00        2500.00                 NaN
