|6.6.6
Archiving\03_Data\eq/QFM_m5/EETA/EETA_2.tab                               
           1
T(K)    
  0.000000000000000E+000
  0.000000000000000E+000
           0
           3
T(K)           P(bar)         Sp(TH),kg     
  2000.00        2500.00                 NaN
  1996.79        2500.00                 NaN
  1993.59        2500.00                 NaN
  1990.38        2500.00                 NaN
  1987.18        2500.00                 NaN
  1983.97        2500.00                 NaN
  1980.77        2500.00                 NaN
  1977.56        2500.00                 NaN
  1974.36        2500.00                 NaN
  1971.15        2500.00                 NaN
  1967.95        2500.00                 NaN
  1964.74        2500.00                 NaN
  1961.54        2500.00                 NaN
  1958.33        2500.00                 NaN
  1955.13        2500.00                 NaN
  1951.92        2500.00                 NaN
  1948.72        2500.00                 NaN
  1945.51        2500.00                 NaN
  1942.31        2500.00                 NaN
  1939.10        2500.00                 NaN
  1935.90        2500.00                 NaN
  1932.69        2500.00                 NaN
  1929.49        2500.00                 NaN
  1926.28        2500.00                 NaN
  1923.08        2500.00                 NaN
  1919.87        2500.00                 NaN
  1916.67        2500.00                 NaN
  1913.46        2500.00                 NaN
  1910.26        2500.00                 NaN
  1907.05        2500.00                 NaN
  1903.85        2500.00                 NaN
  1900.64        2500.00                 NaN
  1897.44        2500.00                 NaN
  1894.23        2500.00                 NaN
  1891.03        2500.00                 NaN
  1887.82        2500.00                 NaN
  1884.62        2500.00                 NaN
  1881.41        2500.00                 NaN
  1878.21        2500.00                 NaN
  1875.00        2500.00                 NaN
  1871.79        2500.00                 NaN
  1868.59        2500.00                 NaN
  1865.38        2500.00                 NaN
  1862.18        2500.00                 NaN
  1858.97        2500.00                 NaN
  1855.77        2500.00                 NaN
  1852.56        2500.00                 NaN
  1849.36        2500.00                 NaN
  1846.15        2500.00                 NaN
  1842.95        2500.00                 NaN
  1839.74        2500.00                 NaN
  1836.54        2500.00                 NaN
  1833.33        2500.00                 NaN
  1830.13        2500.00                 NaN
  1826.92        2500.00                 NaN
  1823.72        2500.00                 NaN
  1820.51        2500.00                 NaN
  1817.31        2500.00                 NaN
  1814.10        2500.00                 NaN
  1810.90        2500.00                 NaN
  1807.69        2500.00                 NaN
  1804.49        2500.00                 NaN
  1801.28        2500.00                 NaN
  1798.08        2500.00                 NaN
  1794.87        2500.00                 NaN
  1791.67        2500.00                 NaN
  1788.46        2500.00                 NaN
  1785.26        2500.00                 NaN
  1782.05        2500.00                 NaN
  1778.85        2500.00                 NaN
  1775.64        2500.00                 NaN
  1772.44        2500.00                 NaN
  1769.23        2500.00                 NaN
  1766.03        2500.00                 NaN
  1762.82        2500.00                 NaN
  1759.62        2500.00                 NaN
  1756.41        2500.00                 NaN
  1753.21        2500.00                 NaN
  1750.00        2500.00                 NaN
  1746.79        2500.00                 NaN
  1743.59        2500.00                 NaN
  1740.38        2500.00                 NaN
  1737.18        2500.00                 NaN
  1733.97        2500.00                 NaN
  1730.77        2500.00                 NaN
  1727.56        2500.00                 NaN
  1724.36        2500.00                 NaN
  1721.15        2500.00                 NaN
  1717.95        2500.00                 NaN
  1714.74        2500.00                 NaN
  1711.54        2500.00                 NaN
  1708.33        2500.00                 NaN
  1705.13        2500.00                 NaN
  1701.92        2500.00                 NaN
  1698.72        2500.00                 NaN
  1695.51        2500.00                 NaN
  1692.31        2500.00                 NaN
  1689.10        2500.00                 NaN
  1685.90        2500.00                 NaN
  1682.69        2500.00                 NaN
  1679.49        2500.00                 NaN
  1676.28        2500.00                 NaN
  1673.08        2500.00                 NaN
  1669.87        2500.00                 NaN
  1666.67        2500.00                 NaN
  1663.46        2500.00                 NaN
  1660.26        2500.00                 NaN
  1657.05        2500.00                 NaN
  1653.85        2500.00                 NaN
  1650.64        2500.00                 NaN
  1647.44        2500.00                 NaN
  1644.23        2500.00                 NaN
  1641.03        2500.00                 NaN
  1637.82        2500.00                 NaN
  1634.62        2500.00                 NaN
  1631.41        2500.00                 NaN
  1628.21        2500.00       0.303623E-005
  1625.00        2500.00       0.171514E-004
  1621.79        2500.00       0.312665E-004
  1618.59        2500.00       0.453816E-004
  1615.38        2500.00       0.594968E-004
  1612.18        2500.00       0.745578E-004
  1608.97        2500.00       0.701691E-004
  1605.77        2500.00       0.534609E-004
  1602.56        2500.00       0.367527E-004
  1599.36        2500.00       0.191863E-004
  1596.15        2500.00       0.161999E-005
  1592.95        2500.00                 NaN
  1589.74        2500.00                 NaN
  1586.54        2500.00                 NaN
  1583.33        2500.00                 NaN
  1580.13        2500.00                 NaN
  1576.92        2500.00                 NaN
  1573.72        2500.00                 NaN
  1570.51        2500.00                 NaN
  1567.31        2500.00                 NaN
  1564.10        2500.00                 NaN
  1560.90        2500.00                 NaN
  1557.69        2500.00                 NaN
  1554.49        2500.00                 NaN
  1551.28        2500.00                 NaN
  1548.08        2500.00                 NaN
  1544.87        2500.00                 NaN
  1541.67        2500.00                 NaN
  1538.46        2500.00                 NaN
  1535.26        2500.00                 NaN
  1532.05        2500.00                 NaN
  1528.85        2500.00                 NaN
  1525.64        2500.00                 NaN
  1522.44        2500.00                 NaN
  1519.23        2500.00                 NaN
  1516.03        2500.00                 NaN
  1512.82        2500.00                 NaN
  1509.62        2500.00                 NaN
  1506.41        2500.00                 NaN
  1503.21        2500.00                 NaN
  1500.00        2500.00                 NaN
  1496.79        2500.00                 NaN
  1493.59        2500.00                 NaN
  1490.38        2500.00                 NaN
  1487.18        2500.00                 NaN
  1483.97        2500.00                 NaN
  1480.77        2500.00                 NaN
  1477.56        2500.00                 NaN
  1474.36        2500.00                 NaN
  1471.15        2500.00                 NaN
  1467.95        2500.00                 NaN
  1464.74        2500.00                 NaN
  1461.54        2500.00                 NaN
  1458.33        2500.00                 NaN
  1455.13        2500.00                 NaN
  1451.92        2500.00                 NaN
  1448.72        2500.00                 NaN
  1445.51        2500.00                 NaN
  1442.31        2500.00                 NaN
  1439.10        2500.00                 NaN
  1435.90        2500.00                 NaN
  1432.69        2500.00                 NaN
  1429.49        2500.00                 NaN
  1426.28        2500.00                 NaN
  1423.08        2500.00                 NaN
  1419.87        2500.00                 NaN
  1416.67        2500.00                 NaN
  1413.46        2500.00       0.183116E-004
  1410.26        2500.00       0.455292E-004
  1407.05        2500.00       0.455292E-004
  1403.85        2500.00       0.455292E-004
  1400.64        2500.00       0.455292E-004
  1397.44        2500.00       0.455292E-004
  1394.23        2500.00       0.455292E-004
  1391.03        2500.00       0.455292E-004
  1387.82        2500.00       0.455292E-004
  1384.62        2500.00       0.261106E-003
  1381.41        2500.00       0.261106E-003
  1378.21        2500.00       0.316647E-003
  1375.00        2500.00       0.344722E-003
  1371.79        2500.00       0.384246E-003
  1368.59        2500.00       0.384246E-003
  1365.38        2500.00       0.384246E-003
  1362.18        2500.00       0.384246E-003
  1358.97        2500.00       0.565195E-003
  1355.77        2500.00       0.565195E-003
  1352.56        2500.00       0.565195E-003
  1349.36        2500.00       0.565195E-003
  1346.15        2500.00       0.565195E-003
  1342.95        2500.00       0.565195E-003
  1339.74        2500.00       0.565195E-003
  1336.54        2500.00       0.565195E-003
  1333.33        2500.00       0.100757E-002
  1330.13        2500.00       0.100757E-002
  1326.92        2500.00       0.114375E-002
  1323.72        2500.00       0.118622E-002
  1320.51        2500.00       0.118859E-002
  1317.31        2500.00       0.117407E-002
  1314.10        2500.00       0.115425E-002
  1310.90        2500.00       0.115425E-002
  1307.69        2500.00       0.111633E-002
  1304.49        2500.00       0.111633E-002
  1301.28        2500.00       0.111633E-002
  1298.08        2500.00       0.111633E-002
  1294.87        2500.00       0.111633E-002
  1291.67        2500.00       0.111633E-002
  1288.46        2500.00       0.111633E-002
  1285.26        2500.00       0.111633E-002
  1282.05        2500.00       0.990131E-003
  1278.85        2500.00       0.990131E-003
  1275.64        2500.00       0.990131E-003
  1272.44        2500.00       0.990131E-003
  1269.23        2500.00       0.990131E-003
  1266.03        2500.00       0.990131E-003
  1262.82        2500.00       0.990131E-003
  1259.62        2500.00       0.990131E-003
  1256.41        2500.00       0.896881E-003
  1253.21        2500.00       0.896881E-003
  1250.00        2500.00       0.896881E-003
  1246.79        2500.00       0.896881E-003
  1243.59        2500.00       0.896881E-003
  1240.38        2500.00       0.896881E-003
  1237.18        2500.00       0.896881E-003
  1233.97        2500.00       0.896881E-003
  1230.77        2500.00       0.828909E-003
  1227.56        2500.00       0.828909E-003
  1224.36        2500.00       0.828909E-003
  1221.15        2500.00       0.828909E-003
  1217.95        2500.00       0.828909E-003
  1214.74        2500.00       0.828909E-003
  1211.54        2500.00       0.828909E-003
  1208.33        2500.00       0.828909E-003
  1205.13        2500.00       0.780374E-003
  1201.92        2500.00       0.780374E-003
  1198.72        2500.00       0.780374E-003
  1195.51        2500.00       0.780374E-003
  1192.31        2500.00       0.780374E-003
  1189.10        2500.00       0.780374E-003
  1185.90        2500.00       0.780374E-003
  1182.69        2500.00       0.780374E-003
  1179.49        2500.00       0.748425E-003
  1176.28        2500.00       0.748425E-003
  1173.08        2500.00       0.748425E-003
  1169.87        2500.00       0.748425E-003
  1166.67        2500.00       0.748425E-003
  1163.46        2500.00       0.748425E-003
  1160.26        2500.00       0.748425E-003
  1157.05        2500.00       0.748425E-003
  1153.85        2500.00       0.729876E-003
  1150.64        2500.00       0.729876E-003
  1147.44        2500.00       0.729876E-003
  1144.23        2500.00       0.729876E-003
  1141.03        2500.00       0.729876E-003
  1137.82        2500.00       0.729876E-003
  1134.62        2500.00       0.729876E-003
  1131.41        2500.00       0.729876E-003
  1128.21        2500.00       0.723329E-003
  1125.00        2500.00       0.723329E-003
  1121.79        2500.00       0.723329E-003
  1118.59        2500.00       0.723329E-003
  1115.38        2500.00       0.723329E-003
  1112.18        2500.00       0.723329E-003
  1108.97        2500.00       0.723329E-003
  1105.77        2500.00       0.723329E-003
  1102.56        2500.00       0.726957E-003
  1099.36        2500.00       0.726957E-003
  1096.15        2500.00       0.726957E-003
  1092.95        2500.00       0.726957E-003
  1089.74        2500.00       0.732431E-003
  1086.54        2500.00       0.732431E-003
  1083.33        2500.00       0.736008E-003
  1080.13        2500.00       0.738027E-003
  1076.92        2500.00       0.740137E-003
  1073.72        2500.00       0.740137E-003
  1070.51        2500.00       0.740137E-003
  1067.31        2500.00       0.740137E-003
  1064.10        2500.00       0.740137E-003
  1060.90        2500.00       0.740137E-003
  1057.69        2500.00       0.740137E-003
  1054.49        2500.00       0.740137E-003
  1051.28        2500.00       0.762791E-003
  1048.08        2500.00       0.762791E-003
  1044.87        2500.00       0.762791E-003
  1041.67        2500.00       0.762791E-003
  1038.46        2500.00       0.762791E-003
  1035.26        2500.00       0.762791E-003
  1032.05        2500.00       0.762791E-003
  1028.85        2500.00       0.762791E-003
  1025.64        2500.00       0.794618E-003
  1022.44        2500.00       0.794618E-003
  1019.23        2500.00       0.794618E-003
  1016.03        2500.00       0.794618E-003
  1012.82        2500.00       0.794618E-003
  1009.62        2500.00       0.794618E-003
  1006.41        2500.00       0.794618E-003
  1003.21        2500.00       0.794618E-003
  1000.00        2500.00       0.835232E-003
