|6.6.6
Archiving\03_Data\eqfrac/QFM_m1.5/YM20/YM20_6.tab                       
           1
T(K)    
  0.000000000000000E+000
  0.000000000000000E+000
           0
           3
T(K)           P(bar)         rho,kg/m3     
  1576.92        2500.00        3250.94     
  1575.47        2500.00        3237.79     
  1574.03        2500.00        3238.23     
  1572.58        2500.00        3238.88     
  1571.14        2500.00        3239.08     
  1569.69        2500.00        3239.56     
  1568.24        2500.00        3239.95     
  1566.80        2500.00        3240.63     
  1565.35        2500.00        3241.47     
  1563.91        2500.00        3248.30     
  1562.46        2500.00        3233.76     
  1561.01        2500.00        3234.23     
  1559.57        2500.00        3242.50     
  1558.12        2500.00        3242.39     
  1556.68        2500.00        3243.22     
  1555.23        2500.00        3243.55     
  1553.79        2500.00        3243.97     
  1552.34        2500.00        3241.45     
  1550.89        2500.00        3246.00     
  1549.45        2500.00        3245.95     
  1548.00        2500.00        3244.86     
  1546.56        2500.00        3246.20     
  1545.11        2500.00        3245.94     
  1543.66        2500.00        3246.96     
  1542.22        2500.00        3246.33     
  1540.77        2500.00        3247.72     
  1539.33        2500.00        3247.37     
  1537.88        2500.00        3247.85     
  1536.43        2500.00        3248.52     
  1534.99        2500.00        3249.51     
  1533.54        2500.00        3250.23     
  1532.10        2500.00        3251.48     
  1530.65        2500.00        3250.10     
  1529.20        2500.00        3248.72     
  1527.76        2500.00        3252.20     
  1526.31        2500.00        3252.28     
  1524.87        2500.00        3251.41     
  1523.42        2500.00        3251.48     
  1521.98        2500.00        3252.44     
  1520.53        2500.00        3251.99     
  1519.08        2500.00        3252.95     
  1517.64        2500.00        3253.02     
  1516.19        2500.00        3253.65     
  1514.75        2500.00        3253.80     
  1513.30        2500.00        3254.48     
  1511.85        2500.00        3254.41     
  1510.41        2500.00        3255.13     
  1508.96        2500.00        3254.97     
  1507.52        2500.00        3255.39     
  1506.07        2500.00        3255.73     
  1504.62        2500.00        3258.01     
  1503.18        2500.00        3256.28     
  1501.73        2500.00        3256.91     
  1500.29        2500.00        3257.52     
  1498.84        2500.00        3256.82     
  1497.39        2500.00        3257.55     
  1495.95        2500.00        3257.77     
  1494.50        2500.00        3257.92     
  1493.06        2500.00        3257.14     
  1491.61        2500.00        3248.53     
  1490.17        2500.00        3238.25     
  1488.72        2500.00        3238.75     
  1487.27        2500.00        3239.69     
  1485.83        2500.00        3240.67     
  1484.38        2500.00        3235.67     
  1482.94        2500.00        3232.80     
  1481.49        2500.00        3234.31     
  1480.04        2500.00        3235.46     
  1478.60        2500.00        3235.98     
  1477.15        2500.00        3237.59     
  1475.71        2500.00        3238.34     
  1474.26        2500.00        3240.81     
  1472.81        2500.00        3240.18     
  1471.37        2500.00        3242.29     
  1469.92        2500.00        3243.32     
  1468.48        2500.00        3245.94     
  1467.03        2500.00        3246.98     
  1465.58        2500.00        3247.85     
  1464.14        2500.00        3259.02     
  1462.69        2500.00        3247.62     
  1461.25        2500.00        3248.20     
  1459.80        2500.00        3249.20     
  1458.35        2500.00        3255.70     
  1456.91        2500.00        3251.96     
  1455.46        2500.00        3252.16     
  1454.02        2500.00        3262.79     
  1452.57        2500.00        3257.10     
  1451.13        2500.00        3257.28     
  1449.68        2500.00        3256.25     
  1448.23        2500.00        3257.28     
  1446.79        2500.00        3258.37     
  1445.34        2500.00        3259.29     
  1443.90        2500.00        3261.25     
  1442.45        2500.00        3283.70     
  1441.00        2500.00        3262.66     
  1439.56        2500.00        3263.27     
  1438.11        2500.00        3265.28     
  1436.67        2500.00        3106.62     
  1435.22        2500.00        3092.81     
  1433.77        2500.00        3094.49     
  1432.33        2500.00        3094.99     
  1430.88        2500.00        3096.59     
  1429.44        2500.00        3097.89     
  1427.99        2500.00        3099.15     
  1426.54        2500.00        3100.48     
  1425.10        2500.00        3101.72     
  1423.65        2500.00        3040.49     
  1422.21        2500.00        3105.93     
  1420.76        2500.00        3105.56     
  1419.32        2500.00        3106.89     
  1417.87        2500.00        3120.60     
  1416.42        2500.00        3108.32     
  1414.98        2500.00        3110.70     
  1413.53        2500.00        3111.26     
  1412.09        2500.00        3114.01     
  1410.64        2500.00        3114.58     
  1409.19        2500.00        3115.91     
  1407.75        2500.00        3117.19     
  1406.30        2500.00        3118.50     
  1404.86        2500.00        3119.79     
  1403.41        2500.00        3121.12     
  1401.96        2500.00        3122.18     
  1400.52        2500.00        3123.26     
  1399.07        2500.00        3125.18     
  1397.63        2500.00        3126.34     
  1396.18        2500.00        3127.37     
  1394.73        2500.00        3129.08     
  1393.29        2500.00        3130.26     
  1391.84        2500.00        3131.61     
  1390.40        2500.00        3133.13     
  1388.95        2500.00        3134.46     
  1387.51        2500.00        3135.67     
  1386.06        2500.00        3137.05     
  1384.61        2500.00        3138.50     
  1383.17        2500.00        3139.78     
  1381.72        2500.00        3141.05     
  1380.28        2500.00        3142.29     
  1378.83        2500.00        3143.76     
  1377.38        2500.00        3145.03     
  1375.94        2500.00        3146.47     
  1374.49        2500.00        3148.01     
  1373.05        2500.00        3149.38     
  1371.60        2500.00        3150.62     
  1370.15        2500.00        3151.94     
  1368.71        2500.00        3153.26     
  1367.26        2500.00        3154.34     
  1365.82        2500.00        3156.20     
  1364.37        2500.00        3157.35     
  1362.92        2500.00        3158.72     
  1361.48        2500.00        3160.22     
  1360.03        2500.00        3161.29     
  1358.59        2500.00        3162.57     
  1357.14        2500.00        3164.68     
  1355.70        2500.00        3165.46     
  1354.25        2500.00        3166.83     
  1352.80        2500.00        3168.22     
  1351.36        2500.00        3169.40     
  1349.91        2500.00        3171.37     
  1348.47        2500.00        3172.06     
  1347.02        2500.00        3173.38     
  1345.57        2500.00        3174.17     
  1344.13        2500.00        3176.41     
  1342.68        2500.00        3177.32     
  1341.24        2500.00        3178.62     
  1339.79        2500.00        3179.62     
  1338.34        2500.00        3180.89     
  1336.90        2500.00        3181.81     
  1335.45        2500.00        3183.68     
  1334.01        2500.00        3183.32     
  1332.56        2500.00        3185.98     
  1331.11        2500.00        3187.07     
  1329.67        2500.00        3188.34     
  1328.22        2500.00        3189.52     
  1326.78        2500.00        3190.55     
  1325.33        2500.00        3191.97     
  1323.88        2500.00        3192.96     
  1322.44        2500.00        3194.22     
  1320.99        2500.00        3195.28     
  1319.55        2500.00        3196.22     
  1318.10        2500.00        3197.38     
  1316.66        2500.00        3198.29     
  1315.21        2500.00        3199.29     
  1313.76        2500.00        3200.45     
  1312.32        2500.00        3201.38     
  1310.87        2500.00        2770.96     
  1309.43        2500.00        2772.92     
  1307.98        2500.00        2775.55     
  1306.53        2500.00        2778.26     
  1305.09        2500.00        2781.14     
  1303.64        2500.00        2783.85     
  1302.20        2500.00        2786.50     
  1300.75        2500.00        2789.01     
  1299.30        2500.00        2791.45     
  1297.86        2500.00        2793.92     
  1296.41        2500.00        2796.46     
  1294.97        2500.00        2798.81     
  1293.52        2500.00        2801.34     
  1292.07        2500.00        2818.47     
  1290.63        2500.00        2835.89     
  1289.18        2500.00        2838.57     
  1287.74        2500.00        2838.25     
  1286.29        2500.00        2838.91     
  1284.85        2500.00        2838.76     
  1283.40        2500.00        2836.89     
  1281.95        2500.00        2838.90     
  1280.51        2500.00        2839.76     
  1279.06        2500.00        2837.54     
  1277.62        2500.00        2836.78     
  1276.17        2500.00        2834.09     
  1274.72        2500.00        2844.23     
  1273.28        2500.00        2840.87     
  1271.83        2500.00        2837.44     
  1270.39        2500.00        2844.17     
  1268.94        2500.00        2841.32     
  1267.49        2500.00        2842.14     
  1266.05        2500.00        2841.96     
  1264.60        2500.00        2837.84     
  1263.16        2500.00        2843.60     
  1261.71        2500.00        2846.09     
  1260.26        2500.00        2839.18     
  1258.82        2500.00        2846.38     
  1257.37        2500.00        2838.21     
  1255.93        2500.00        2780.22     
  1254.48        2500.00        2762.64     
  1253.04        2500.00        2735.07     
  1251.59        2500.00                 NaN
  1250.14        2500.00                 NaN
  1248.70        2500.00                 NaN
  1247.25        2500.00                 NaN
  1245.81        2500.00                 NaN
  1244.36        2500.00                 NaN
  1242.91        2500.00                 NaN
  1241.47        2500.00                 NaN
  1240.02        2500.00                 NaN
  1238.58        2500.00                 NaN
  1237.13        2500.00                 NaN
  1235.68        2500.00                 NaN
  1234.24        2500.00                 NaN
  1232.79        2500.00                 NaN
  1231.35        2500.00                 NaN
  1229.90        2500.00                 NaN
  1228.45        2500.00                 NaN
  1227.01        2500.00                 NaN
  1225.56        2500.00                 NaN
  1224.12        2500.00                 NaN
  1222.67        2500.00                 NaN
  1221.22        2500.00                 NaN
  1219.78        2500.00                 NaN
  1218.33        2500.00                 NaN
  1216.89        2500.00                 NaN
  1215.44        2500.00                 NaN
  1214.00        2500.00                 NaN
  1212.55        2500.00                 NaN
  1211.10        2500.00                 NaN
  1209.66        2500.00                 NaN
  1208.21        2500.00                 NaN
  1206.77        2500.00                 NaN
  1205.32        2500.00                 NaN
  1203.87        2500.00                 NaN
  1202.43        2500.00                 NaN
  1200.98        2500.00                 NaN
  1199.54        2500.00                 NaN
  1198.09        2500.00                 NaN
  1196.64        2500.00                 NaN
  1195.20        2500.00                 NaN
  1193.75        2500.00                 NaN
  1192.31        2500.00                 NaN
  1190.86        2500.00                 NaN
  1189.41        2500.00                 NaN
  1187.97        2500.00                 NaN
  1186.52        2500.00                 NaN
  1185.08        2500.00                 NaN
  1183.63        2500.00                 NaN
  1182.19        2500.00                 NaN
  1180.74        2500.00                 NaN
  1179.29        2500.00                 NaN
  1177.85        2500.00                 NaN
  1176.40        2500.00                 NaN
  1174.96        2500.00                 NaN
  1173.51        2500.00                 NaN
  1172.06        2500.00                 NaN
  1170.62        2500.00                 NaN
  1169.17        2500.00                 NaN
  1167.73        2500.00                 NaN
  1166.28        2500.00                 NaN
  1164.83        2500.00                 NaN
  1163.39        2500.00                 NaN
  1161.94        2500.00                 NaN
  1160.50        2500.00                 NaN
  1159.05        2500.00                 NaN
  1157.60        2500.00                 NaN
  1156.16        2500.00                 NaN
  1154.71        2500.00                 NaN
  1153.27        2500.00                 NaN
  1151.82        2500.00                 NaN
  1150.38        2500.00                 NaN
  1148.93        2500.00                 NaN
  1147.48        2500.00                 NaN
  1146.04        2500.00                 NaN
  1144.59        2500.00                 NaN
  1143.15        2500.00                 NaN
  1141.70        2500.00                 NaN
  1140.25        2500.00                 NaN
  1138.81        2500.00                 NaN
  1137.36        2500.00                 NaN
  1135.92        2500.00                 NaN
  1134.47        2500.00                 NaN
  1133.02        2500.00                 NaN
  1131.58        2500.00                 NaN
  1130.13        2500.00                 NaN
  1128.69        2500.00                 NaN
  1127.24        2500.00                 NaN
  1125.79        2500.00                 NaN
  1124.35        2500.00                 NaN
  1122.90        2500.00                 NaN
  1121.46        2500.00                 NaN
  1120.01        2500.00                 NaN
  1118.57        2500.00                 NaN
  1117.12        2500.00                 NaN
  1115.67        2500.00                 NaN
  1114.23        2500.00                 NaN
  1112.78        2500.00                 NaN
  1111.34        2500.00                 NaN
  1109.89        2500.00                 NaN
  1108.44        2500.00                 NaN
  1107.00        2500.00                 NaN
  1105.55        2500.00                 NaN
  1104.11        2500.00                 NaN
  1102.66        2500.00                 NaN
  1101.21        2500.00                 NaN
  1099.77        2500.00                 NaN
  1098.32        2500.00                 NaN
  1096.88        2500.00                 NaN
  1095.43        2500.00                 NaN
  1093.98        2500.00                 NaN
  1092.54        2500.00                 NaN
  1091.09        2500.00                 NaN
  1089.65        2500.00                 NaN
  1088.20        2500.00                 NaN
  1086.75        2500.00                 NaN
  1085.31        2500.00                 NaN
  1083.86        2500.00                 NaN
  1082.42        2500.00                 NaN
  1080.97        2500.00                 NaN
  1079.53        2500.00                 NaN
  1078.08        2500.00                 NaN
  1076.63        2500.00                 NaN
  1075.19        2500.00                 NaN
  1073.74        2500.00                 NaN
  1072.30        2500.00                 NaN
  1070.85        2500.00                 NaN
  1069.40        2500.00                 NaN
  1067.96        2500.00                 NaN
  1066.51        2500.00                 NaN
  1065.07        2500.00                 NaN
  1063.62        2500.00                 NaN
  1062.17        2500.00                 NaN
  1060.73        2500.00                 NaN
  1059.28        2500.00                 NaN
  1057.84        2500.00                 NaN
  1056.39        2500.00                 NaN
  1054.94        2500.00                 NaN
  1053.50        2500.00                 NaN
  1052.05        2500.00                 NaN
  1050.61        2500.00                 NaN
  1049.16        2500.00                 NaN
  1047.72        2500.00                 NaN
  1046.27        2500.00                 NaN
  1044.82        2500.00                 NaN
  1043.38        2500.00                 NaN
  1041.93        2500.00                 NaN
  1040.49        2500.00                 NaN
  1039.04        2500.00                 NaN
  1037.59        2500.00                 NaN
  1036.15        2500.00                 NaN
  1034.70        2500.00                 NaN
  1033.26        2500.00                 NaN
  1031.81        2500.00                 NaN
  1030.36        2500.00                 NaN
  1028.92        2500.00                 NaN
  1027.47        2500.00                 NaN
  1026.03        2500.00                 NaN
  1024.58        2500.00                 NaN
  1023.13        2500.00                 NaN
  1021.69        2500.00                 NaN
  1020.24        2500.00                 NaN
  1018.80        2500.00                 NaN
  1017.35        2500.00                 NaN
  1015.91        2500.00                 NaN
  1014.46        2500.00                 NaN
  1013.01        2500.00                 NaN
  1011.57        2500.00                 NaN
  1010.12        2500.00                 NaN
  1008.68        2500.00                 NaN
  1007.23        2500.00                 NaN
  1005.78        2500.00                 NaN
  1004.34        2500.00                 NaN
  1002.89        2500.00                 NaN
  1001.45        2500.00                 NaN
  1000.00        2500.00                 NaN
