|6.6.6
Archiving\03_Data\frac/QFM_m4.25/KHA22/KHA22_6.tab                        
           1
T(K)    
  0.000000000000000E+000
  0.000000000000000E+000
           0
           3
T(K)           P(bar)         rho,kg/m3     
  2000.00        2500.00        5154.70     
  1997.49        2500.00        5155.46     
  1994.99        2500.00        5156.21     
  1992.48        2500.00        5156.95     
  1989.97        2500.00        5157.70     
  1987.47        2500.00        5158.45     
  1984.96        2500.00        5159.20     
  1982.46        2500.00        5159.95     
  1979.95        2500.00        5160.70     
  1977.44        2500.00        5161.44     
  1974.94        2500.00        5162.19     
  1972.43        2500.00        5162.94     
  1969.92        2500.00        5163.68     
  1967.42        2500.00        5164.43     
  1964.91        2500.00        5165.17     
  1962.41        2500.00        5165.92     
  1959.90        2500.00        5166.66     
  1957.39        2500.00        5167.40     
  1954.89        2500.00        5168.15     
  1952.38        2500.00        5168.89     
  1949.87        2500.00        5169.63     
  1947.37        2500.00        5170.37     
  1944.86        2500.00        5171.12     
  1942.36        2500.00        5171.86     
  1939.85        2500.00        5172.60     
  1937.34        2500.00        5173.34     
  1934.84        2500.00        5174.08     
  1932.33        2500.00        5174.82     
  1929.82        2500.00        5175.56     
  1927.32        2500.00        5176.30     
  1924.81        2500.00        5177.03     
  1922.31        2500.00        4427.13     
  1919.80        2500.00        3141.21     
  1917.29        2500.00        3142.91     
  1914.79        2500.00        3144.46     
  1912.28        2500.00        3145.31     
  1909.77        2500.00        3146.65     
  1907.27        2500.00        3148.52     
  1904.76        2500.00        3149.73     
  1902.26        2500.00        3151.38     
  1899.75        2500.00        3152.70     
  1897.24        2500.00        3154.12     
  1894.74        2500.00        3155.31     
  1892.23        2500.00        3157.00     
  1889.72        2500.00        3159.20     
  1887.22        2500.00        3160.06     
  1884.71        2500.00        3161.52     
  1882.21        2500.00        3162.87     
  1879.70        2500.00        3163.89     
  1877.19        2500.00        3166.67     
  1874.69        2500.00        3167.51     
  1872.18        2500.00        3190.02     
  1869.67        2500.00        2907.54     
  1867.17        2500.00        3195.45     
  1864.66        2500.00        3197.24     
  1862.16        2500.00        3198.49     
  1859.65        2500.00        3195.47     
  1857.14        2500.00        3208.23     
  1854.64        2500.00        3203.33     
  1852.13        2500.00        3204.45     
  1849.62        2500.00        3206.32     
  1847.12        2500.00        3207.91     
  1844.61        2500.00        3209.25     
  1842.11        2500.00        3210.84     
  1839.60        2500.00        3212.38     
  1837.09        2500.00        3213.65     
  1834.59        2500.00        3216.64     
  1832.08        2500.00        3217.49     
  1829.57        2500.00        3218.47     
  1827.07        2500.00        3219.97     
  1824.56        2500.00        3222.24     
  1822.06        2500.00        3222.97     
  1819.55        2500.00        3224.86     
  1817.04        2500.00        3226.76     
  1814.54        2500.00        3228.18     
  1812.03        2500.00        3229.64     
  1809.52        2500.00        3230.57     
  1807.02        2500.00        3232.80     
  1804.51        2500.00        3234.01     
  1802.01        2500.00        3246.31     
  1799.50        2500.00        3237.72     
  1796.99        2500.00        3238.64     
  1794.49        2500.00        3240.85     
  1791.98        2500.00        3241.33     
  1789.47        2500.00        3242.80     
  1786.97        2500.00        3245.14     
  1784.46        2500.00        3246.92     
  1781.95        2500.00        3248.27     
  1779.45        2500.00        3250.21     
  1776.94        2500.00        3251.37     
  1774.44        2500.00        3252.30     
  1771.93        2500.00        3254.75     
  1769.42        2500.00        3255.31     
  1766.92        2500.00        3258.10     
  1764.41        2500.00        3258.59     
  1761.90        2500.00        3261.03     
  1759.40        2500.00        3261.48     
  1756.89        2500.00        3263.57     
  1754.39        2500.00        3265.27     
  1751.88        2500.00        3266.49     
  1749.37        2500.00        3267.97     
  1746.87        2500.00        3270.82     
  1744.36        2500.00        3271.20     
  1741.85        2500.00        3272.90     
  1739.35        2500.00        3274.21     
  1736.84        2500.00        3275.92     
  1734.34        2500.00        3276.96     
  1731.83        2500.00        3278.94     
  1729.32        2500.00        3277.67     
  1726.82        2500.00        3282.15     
  1724.31        2500.00        3282.14     
  1721.80        2500.00        3283.49     
  1719.30        2500.00        3286.51     
  1716.79        2500.00        3287.35     
  1714.29        2500.00        3290.02     
  1711.78        2500.00        3290.62     
  1709.27        2500.00        3291.62     
  1706.77        2500.00        3293.62     
  1704.26        2500.00        3307.18     
  1701.75        2500.00        3302.59     
  1699.25        2500.00        3297.93     
  1696.74        2500.00        3299.19     
  1694.24        2500.00        3301.29     
  1691.73        2500.00        3301.52     
  1689.22        2500.00        3303.20     
  1686.72        2500.00        3305.32     
  1684.21        2500.00        3306.29     
  1681.70        2500.00        3308.31     
  1679.20        2500.00        3309.72     
  1676.69        2500.00        3310.20     
  1674.19        2500.00        3311.49     
  1671.68        2500.00        3312.56     
  1669.17        2500.00        3314.36     
  1666.67        2500.00        3314.78     
  1664.16        2500.00        3317.84     
  1661.65        2500.00        3317.97     
  1659.15        2500.00        3320.10     
  1656.64        2500.00        3320.86     
  1654.14        2500.00        3321.96     
  1651.63        2500.00        3323.28     
  1649.12        2500.00        3323.83     
  1646.62        2500.00        3326.34     
  1644.11        2500.00        3327.78     
  1641.60        2500.00        3328.64     
  1639.10        2500.00        3239.39     
  1636.59        2500.00        3237.11     
  1634.09        2500.00        3237.94     
  1631.58        2500.00        3238.45     
  1629.07        2500.00        3239.85     
  1626.57        2500.00        3239.62     
  1624.06        2500.00        3241.44     
  1621.55        2500.00        3241.98     
  1619.05        2500.00        3242.74     
  1616.54        2500.00        3243.92     
  1614.04        2500.00        3245.05     
  1611.53        2500.00        3245.89     
  1609.02        2500.00        3246.21     
  1606.52        2500.00        3247.28     
  1604.01        2500.00        3248.21     
  1601.50        2500.00        3248.94     
  1599.00        2500.00        3249.86     
  1596.49        2500.00        3250.24     
  1593.98        2500.00        3251.19     
  1591.48        2500.00        3252.00     
  1588.97        2500.00        3253.25     
  1586.47        2500.00        3253.00     
  1583.96        2500.00        3255.39     
  1581.45        2500.00        3302.77     
  1578.95        2500.00        3246.53     
  1576.44        2500.00        3247.59     
  1573.93        2500.00        3248.08     
  1571.43        2500.00        3248.75     
  1568.92        2500.00        3250.21     
  1566.42        2500.00        3258.38     
  1563.91        2500.00        3260.78     
  1561.40        2500.00        3261.78     
  1558.90        2500.00        3262.03     
  1556.39        2500.00        3262.76     
  1553.88        2500.00        3263.97     
  1551.38        2500.00        3265.48     
  1548.87        2500.00        3265.07     
  1546.37        2500.00        3266.74     
  1543.86        2500.00        3267.16     
  1541.35        2500.00        3267.70     
  1538.85        2500.00        3267.10     
  1536.34        2500.00        3271.20     
  1533.83        2500.00        3270.07     
  1531.33        2500.00        3270.39     
  1528.82        2500.00        3271.60     
  1526.32        2500.00        3272.16     
  1523.81        2500.00        3273.15     
  1521.30        2500.00        3273.25     
  1518.80        2500.00        3273.70     
  1516.29        2500.00        3273.37     
  1513.78        2500.00        3252.74     
  1511.28        2500.00        3253.62     
  1508.77        2500.00        3255.31     
  1506.27        2500.00        3256.63     
  1503.76        2500.00        3257.25     
  1501.25        2500.00        3258.60     
  1498.75        2500.00        3260.79     
  1496.24        2500.00        3262.63     
  1493.73        2500.00        3263.02     
  1491.23        2500.00        3268.27     
  1488.72        2500.00        3265.19     
  1486.22        2500.00        3266.34     
  1483.71        2500.00        3267.98     
  1481.20        2500.00        3268.98     
  1478.70        2500.00        3270.27     
  1476.19        2500.00        3272.06     
  1473.68        2500.00        3273.37     
  1471.18        2500.00        3274.40     
  1468.67        2500.00        3275.47     
  1466.17        2500.00        3268.41     
  1463.66        2500.00        3262.66     
  1461.15        2500.00        3264.39     
  1458.65        2500.00        3266.15     
  1456.14        2500.00        3267.67     
  1453.63        2500.00        3269.40     
  1451.13        2500.00        3270.95     
  1448.62        2500.00        3272.99     
  1446.12        2500.00        3274.67     
  1443.61        2500.00        3276.56     
  1441.10        2500.00        3278.13     
  1438.60        2500.00        3280.26     
  1436.09        2500.00        3282.00     
  1433.58        2500.00        3283.96     
  1431.08        2500.00        3285.18     
  1428.57        2500.00        3189.70     
  1426.07        2500.00        3102.17     
  1423.56        2500.00        3104.22     
  1421.05        2500.00        3106.11     
  1418.55        2500.00        3108.05     
  1416.04        2500.00        3111.59     
  1413.53        2500.00        3120.02     
  1411.03        2500.00        3122.29     
  1408.52        2500.00        3124.57     
  1406.02        2500.00        3126.99     
  1403.51        2500.00        3129.44     
  1401.00        2500.00        3131.72     
  1398.50        2500.00        3134.02     
  1395.99        2500.00        3136.45     
  1393.48        2500.00        3138.93     
  1390.98        2500.00        3141.28     
  1388.47        2500.00        3143.87     
  1385.96        2500.00        3146.07     
  1383.46        2500.00        3148.49     
  1380.95        2500.00        3150.88     
  1378.45        2500.00        3153.28     
  1375.94        2500.00        3155.44     
  1373.43        2500.00        3158.09     
  1370.93        2500.00        3160.97     
  1368.42        2500.00        3162.35     
  1365.91        2500.00        3165.23     
  1363.41        2500.00        3164.03     
  1360.90        2500.00        3172.89     
  1358.40        2500.00        3172.17     
  1355.89        2500.00        3174.52     
  1353.38        2500.00        3176.68     
  1350.88        2500.00        3179.10     
  1348.37        2500.00        3180.97     
  1345.86        2500.00        3183.71     
  1343.36        2500.00        3185.62     
  1340.85        2500.00        3187.75     
  1338.35        2500.00        3189.90     
  1335.84        2500.00        3191.96     
  1333.33        2500.00        3193.87     
  1330.83        2500.00        3195.89     
  1328.32        2500.00        3197.84     
  1325.81        2500.00        3199.64     
  1323.31        2500.00        3201.44     
  1320.80        2500.00        3203.26     
  1318.30        2500.00        3204.94     
  1315.79        2500.00        2773.25     
  1313.28        2500.00        2775.63     
  1310.78        2500.00        2780.60     
  1308.27        2500.00        2785.36     
  1305.76        2500.00        2789.75     
  1303.26        2500.00        2793.61     
  1300.75        2500.00        2797.47     
  1298.25        2500.00        2800.98     
  1295.74        2500.00        2811.22     
  1293.23        2500.00        2822.70     
  1290.73        2500.00        2822.98     
  1288.22        2500.00        2824.64     
  1285.71        2500.00        2825.97     
  1283.21        2500.00        2825.97     
  1280.70        2500.00        2827.23     
  1278.20        2500.00        2826.48     
  1275.69        2500.00        2828.55     
  1273.18        2500.00        2826.12     
  1270.68        2500.00        2829.44     
  1268.17        2500.00        2831.41     
  1265.66        2500.00        2832.76     
  1263.16        2500.00        2833.52     
  1260.65        2500.00        2836.74     
  1258.15        2500.00        2840.82     
  1255.64        2500.00        2838.97     
  1253.13        2500.00        2755.06     
  1250.63        2500.00                 NaN
  1248.12        2500.00                 NaN
  1245.61        2500.00                 NaN
  1243.11        2500.00                 NaN
  1240.60        2500.00                 NaN
  1238.10        2500.00                 NaN
  1235.59        2500.00                 NaN
  1233.08        2500.00                 NaN
  1230.58        2500.00                 NaN
  1228.07        2500.00                 NaN
  1225.56        2500.00                 NaN
  1223.06        2500.00                 NaN
  1220.55        2500.00                 NaN
  1218.05        2500.00                 NaN
  1215.54        2500.00                 NaN
  1213.03        2500.00                 NaN
  1210.53        2500.00                 NaN
  1208.02        2500.00                 NaN
  1205.51        2500.00                 NaN
  1203.01        2500.00                 NaN
  1200.50        2500.00                 NaN
  1197.99        2500.00                 NaN
  1195.49        2500.00                 NaN
  1192.98        2500.00                 NaN
  1190.48        2500.00                 NaN
  1187.97        2500.00                 NaN
  1185.46        2500.00                 NaN
  1182.96        2500.00                 NaN
  1180.45        2500.00                 NaN
  1177.94        2500.00                 NaN
  1175.44        2500.00                 NaN
  1172.93        2500.00                 NaN
  1170.43        2500.00                 NaN
  1167.92        2500.00                 NaN
  1165.41        2500.00                 NaN
  1162.91        2500.00                 NaN
  1160.40        2500.00                 NaN
  1157.89        2500.00                 NaN
  1155.39        2500.00                 NaN
  1152.88        2500.00                 NaN
  1150.38        2500.00                 NaN
  1147.87        2500.00                 NaN
  1145.36        2500.00                 NaN
  1142.86        2500.00                 NaN
  1140.35        2500.00                 NaN
  1137.84        2500.00                 NaN
  1135.34        2500.00                 NaN
  1132.83        2500.00                 NaN
  1130.33        2500.00                 NaN
  1127.82        2500.00                 NaN
  1125.31        2500.00                 NaN
  1122.81        2500.00                 NaN
  1120.30        2500.00                 NaN
  1117.79        2500.00                 NaN
  1115.29        2500.00                 NaN
  1112.78        2500.00                 NaN
  1110.28        2500.00                 NaN
  1107.77        2500.00                 NaN
  1105.26        2500.00                 NaN
  1102.76        2500.00                 NaN
  1100.25        2500.00                 NaN
  1097.74        2500.00                 NaN
  1095.24        2500.00                 NaN
  1092.73        2500.00                 NaN
  1090.23        2500.00                 NaN
  1087.72        2500.00                 NaN
  1085.21        2500.00                 NaN
  1082.71        2500.00                 NaN
  1080.20        2500.00                 NaN
  1077.69        2500.00                 NaN
  1075.19        2500.00                 NaN
  1072.68        2500.00                 NaN
  1070.18        2500.00                 NaN
  1067.67        2500.00                 NaN
  1065.16        2500.00                 NaN
  1062.66        2500.00                 NaN
  1060.15        2500.00                 NaN
  1057.64        2500.00                 NaN
  1055.14        2500.00                 NaN
  1052.63        2500.00                 NaN
  1050.13        2500.00                 NaN
  1047.62        2500.00                 NaN
  1045.11        2500.00                 NaN
  1042.61        2500.00                 NaN
  1040.10        2500.00                 NaN
  1037.59        2500.00                 NaN
  1035.09        2500.00                 NaN
  1032.58        2500.00                 NaN
  1030.08        2500.00                 NaN
  1027.57        2500.00                 NaN
  1025.06        2500.00                 NaN
  1022.56        2500.00                 NaN
  1020.05        2500.00                 NaN
  1017.54        2500.00                 NaN
  1015.04        2500.00                 NaN
  1012.53        2500.00                 NaN
  1010.03        2500.00                 NaN
  1007.52        2500.00                 NaN
  1005.01        2500.00                 NaN
  1002.51        2500.00                 NaN
  1000.00        2500.00                 NaN
