|6.6.6
Archiving\03_Data\eqfrac/QFM_m0.75/ALH/ALH_2.tab                          
           1
T(K)    
  0.000000000000000E+000
  0.000000000000000E+000
           0
           3
T(K)           P(bar)         Sp(TH),kg     
  1554.49        2500.00                 NaN
  1553.10        2500.00                 NaN
  1551.71        2500.00                 NaN
  1550.32        2500.00                 NaN
  1548.93        2500.00                 NaN
  1547.54        2500.00                 NaN
  1546.15        2500.00                 NaN
  1544.76        2500.00                 NaN
  1543.37        2500.00                 NaN
  1541.98        2500.00                 NaN
  1540.59        2500.00                 NaN
  1539.20        2500.00                 NaN
  1537.81        2500.00                 NaN
  1536.42        2500.00                 NaN
  1535.03        2500.00                 NaN
  1533.64        2500.00                 NaN
  1532.25        2500.00                 NaN
  1530.87        2500.00                 NaN
  1529.48        2500.00                 NaN
  1528.09        2500.00                 NaN
  1526.70        2500.00                 NaN
  1525.31        2500.00                 NaN
  1523.92        2500.00                 NaN
  1522.53        2500.00                 NaN
  1521.14        2500.00                 NaN
  1519.75        2500.00                 NaN
  1518.36        2500.00                 NaN
  1516.97        2500.00                 NaN
  1515.58        2500.00                 NaN
  1514.19        2500.00                 NaN
  1512.80        2500.00                 NaN
  1511.41        2500.00                 NaN
  1510.02        2500.00                 NaN
  1508.63        2500.00                 NaN
  1507.24        2500.00                 NaN
  1505.85        2500.00                 NaN
  1504.46        2500.00                 NaN
  1503.07        2500.00                 NaN
  1501.68        2500.00                 NaN
  1500.29        2500.00                 NaN
  1498.90        2500.00                 NaN
  1497.51        2500.00                 NaN
  1496.12        2500.00                 NaN
  1494.73        2500.00                 NaN
  1493.34        2500.00                 NaN
  1491.95        2500.00                 NaN
  1490.56        2500.00                 NaN
  1489.17        2500.00                 NaN
  1487.78        2500.00                 NaN
  1486.39        2500.00                 NaN
  1485.01        2500.00                 NaN
  1483.62        2500.00                 NaN
  1482.23        2500.00                 NaN
  1480.84        2500.00                 NaN
  1479.45        2500.00                 NaN
  1478.06        2500.00                 NaN
  1476.67        2500.00                 NaN
  1475.28        2500.00                 NaN
  1473.89        2500.00                 NaN
  1472.50        2500.00                 NaN
  1471.11        2500.00                 NaN
  1469.72        2500.00                 NaN
  1468.33        2500.00                 NaN
  1466.94        2500.00                 NaN
  1465.55        2500.00                 NaN
  1464.16        2500.00                 NaN
  1462.77        2500.00                 NaN
  1461.38        2500.00                 NaN
  1459.99        2500.00                 NaN
  1458.60        2500.00                 NaN
  1457.21        2500.00                 NaN
  1455.82        2500.00                 NaN
  1454.43        2500.00       0.255458E-006
  1453.04        2500.00                 NaN
  1451.65        2500.00       0.892152E-007
  1450.26        2500.00       0.213139E-007
  1448.87        2500.00       0.360664E-006
  1447.48        2500.00       0.187932E-006
  1446.09        2500.00       0.255643E-006
  1444.70        2500.00       0.309202E-006
  1443.31        2500.00       0.247958E-007
  1441.92        2500.00       0.226806E-006
  1440.53        2500.00       0.214923E-006
  1439.14        2500.00       0.208772E-006
  1437.76        2500.00       0.299561E-006
  1436.37        2500.00       0.828717E-007
  1434.98        2500.00       0.176181E-006
  1433.59        2500.00       0.164402E-006
  1432.20        2500.00       0.164337E-006
  1430.81        2500.00       0.151655E-006
  1429.42        2500.00       0.145031E-006
  1428.03        2500.00       0.139409E-006
  1426.64        2500.00       0.132046E-006
  1425.25        2500.00       0.121060E-006
  1423.86        2500.00       0.121733E-006
  1422.47        2500.00       0.115218E-006
  1421.08        2500.00       0.104720E-006
  1419.69        2500.00       0.100118E-006
  1418.30        2500.00       0.941475E-007
  1416.91        2500.00       0.910201E-007
  1415.52        2500.00                 NaN
  1414.13        2500.00                 NaN
  1412.74        2500.00                 NaN
  1411.35        2500.00       0.381087E-006
  1409.96        2500.00                 NaN
  1408.57        2500.00                 NaN
  1407.18        2500.00                 NaN
  1405.79        2500.00                 NaN
  1404.40        2500.00                 NaN
  1403.01        2500.00                 NaN
  1401.62        2500.00                 NaN
  1400.23        2500.00                 NaN
  1398.84        2500.00                 NaN
  1397.45        2500.00                 NaN
  1396.06        2500.00                 NaN
  1394.67        2500.00                 NaN
  1393.28        2500.00                 NaN
  1391.90        2500.00                 NaN
  1390.51        2500.00                 NaN
  1389.12        2500.00                 NaN
  1387.73        2500.00                 NaN
  1386.34        2500.00                 NaN
  1384.95        2500.00                 NaN
  1383.56        2500.00                 NaN
  1382.17        2500.00                 NaN
  1380.78        2500.00                 NaN
  1379.39        2500.00                 NaN
  1378.00        2500.00                 NaN
  1376.61        2500.00                 NaN
  1375.22        2500.00                 NaN
  1373.83        2500.00                 NaN
  1372.44        2500.00                 NaN
  1371.05        2500.00                 NaN
  1369.66        2500.00                 NaN
  1368.27        2500.00                 NaN
  1366.88        2500.00                 NaN
  1365.49        2500.00                 NaN
  1364.10        2500.00                 NaN
  1362.71        2500.00                 NaN
  1361.32        2500.00                 NaN
  1359.93        2500.00                 NaN
  1358.54        2500.00                 NaN
  1357.15        2500.00                 NaN
  1355.76        2500.00                 NaN
  1354.37        2500.00                 NaN
  1352.98        2500.00                 NaN
  1351.59        2500.00                 NaN
  1350.20        2500.00                 NaN
  1348.81        2500.00                 NaN
  1347.42        2500.00                 NaN
  1346.04        2500.00                 NaN
  1344.65        2500.00       0.205829E-004
  1343.26        2500.00                 NaN
  1341.87        2500.00       0.595923E-005
  1340.48        2500.00       0.131536E-004
  1339.09        2500.00       0.132945E-004
  1337.70        2500.00       0.131521E-004
  1336.31        2500.00       0.129960E-004
  1334.92        2500.00       0.128360E-004
  1333.53        2500.00       0.125489E-004
  1332.14        2500.00       0.123149E-004
  1330.75        2500.00       0.120602E-004
  1329.36        2500.00       0.118166E-004
  1327.97        2500.00       0.115213E-004
  1326.58        2500.00       0.112594E-004
  1325.19        2500.00       0.109655E-004
  1323.80        2500.00       0.107266E-004
  1322.41        2500.00       0.104571E-004
  1321.02        2500.00       0.102092E-004
  1319.63        2500.00       0.996385E-005
  1318.24        2500.00       0.972251E-005
  1316.85        2500.00       0.948808E-005
  1315.46        2500.00       0.879521E-005
  1314.07        2500.00       0.937157E-005
  1312.68        2500.00       0.892322E-005
  1311.29        2500.00       0.860739E-005
  1309.90        2500.00       0.839035E-005
  1308.51        2500.00       0.819446E-005
  1307.12        2500.00       0.800449E-005
  1305.73        2500.00       0.781549E-005
  1304.34        2500.00       0.762275E-005
  1302.95        2500.00       0.745272E-005
  1301.56        2500.00       0.727904E-005
  1300.18        2500.00       0.711062E-005
  1298.79        2500.00       0.694097E-005
  1297.40        2500.00       0.679359E-005
  1296.01        2500.00       0.128949E-003
  1294.62        2500.00       0.122891E-003
  1293.23        2500.00       0.620475E-004
  1291.84        2500.00       0.364534E-004
  1290.45        2500.00       0.249893E-004
  1289.06        2500.00       0.142514E-004
  1287.67        2500.00       0.118236E-004
  1286.28        2500.00       0.869845E-005
  1284.89        2500.00       0.681010E-005
  1283.50        2500.00       0.532985E-005
  1282.11        2500.00       0.428073E-005
  1280.72        2500.00       0.349712E-005
  1279.33        2500.00       0.288190E-005
  1277.94        2500.00       0.241404E-005
  1276.55        2500.00       0.317591E-005
  1275.16        2500.00       0.168534E-005
  1273.77        2500.00       0.599522E-006
  1272.38        2500.00       0.114952E-005
  1270.99        2500.00       0.137697E-005
  1269.60        2500.00       0.112784E-005
  1268.21        2500.00       0.507875E-006
  1266.82        2500.00       0.740573E-006
  1265.43        2500.00       0.132664E-005
  1264.04        2500.00       0.368820E-006
  1262.65        2500.00       0.204221E-006
  1261.26        2500.00       0.750267E-006
  1259.87        2500.00       0.266096E-006
  1258.48        2500.00       0.243464E-006
  1257.09        2500.00       0.351643E-006
  1255.70        2500.00       0.361376E-006
  1254.31        2500.00       0.202740E-006
  1252.93        2500.00       0.195905E-006
  1251.54        2500.00       0.220013E-006
  1250.15        2500.00       0.145011E-006
  1248.76        2500.00       0.161957E-006
  1247.37        2500.00       0.177501E-006
  1245.98        2500.00       0.142259E-006
  1244.59        2500.00                 NaN
  1243.20        2500.00                 NaN
  1241.81        2500.00                 NaN
  1240.42        2500.00                 NaN
  1239.03        2500.00                 NaN
  1237.64        2500.00                 NaN
  1236.25        2500.00       0.258463E-006
  1234.86        2500.00                 NaN
  1233.47        2500.00                 NaN
  1232.08        2500.00                 NaN
  1230.69        2500.00                 NaN
  1229.30        2500.00                 NaN
  1227.91        2500.00                 NaN
  1226.52        2500.00                 NaN
  1225.13        2500.00                 NaN
  1223.74        2500.00                 NaN
  1222.35        2500.00                 NaN
  1220.96        2500.00                 NaN
  1219.57        2500.00                 NaN
  1218.18        2500.00                 NaN
  1216.79        2500.00                 NaN
  1215.40        2500.00                 NaN
  1214.01        2500.00                 NaN
  1212.62        2500.00                 NaN
  1211.23        2500.00                 NaN
  1209.84        2500.00                 NaN
  1208.45        2500.00                 NaN
  1207.07        2500.00                 NaN
  1205.68        2500.00                 NaN
  1204.29        2500.00                 NaN
  1202.90        2500.00                 NaN
  1201.51        2500.00                 NaN
  1200.12        2500.00                 NaN
  1198.73        2500.00                 NaN
  1197.34        2500.00                 NaN
  1195.95        2500.00                 NaN
  1194.56        2500.00                 NaN
  1193.17        2500.00                 NaN
  1191.78        2500.00                 NaN
  1190.39        2500.00                 NaN
  1189.00        2500.00                 NaN
  1187.61        2500.00                 NaN
  1186.22        2500.00                 NaN
  1184.83        2500.00                 NaN
  1183.44        2500.00                 NaN
  1182.05        2500.00                 NaN
  1180.66        2500.00                 NaN
  1179.27        2500.00                 NaN
  1177.88        2500.00                 NaN
  1176.49        2500.00                 NaN
  1175.10        2500.00                 NaN
  1173.71        2500.00                 NaN
  1172.32        2500.00                 NaN
  1170.93        2500.00                 NaN
  1169.54        2500.00                 NaN
  1168.15        2500.00                 NaN
  1166.76        2500.00                 NaN
  1165.37        2500.00                 NaN
  1163.98        2500.00                 NaN
  1162.59        2500.00                 NaN
  1161.21        2500.00                 NaN
  1159.82        2500.00                 NaN
  1158.43        2500.00                 NaN
  1157.04        2500.00                 NaN
  1155.65        2500.00                 NaN
  1154.26        2500.00                 NaN
  1152.87        2500.00                 NaN
  1151.48        2500.00                 NaN
  1150.09        2500.00                 NaN
  1148.70        2500.00                 NaN
  1147.31        2500.00                 NaN
  1145.92        2500.00                 NaN
  1144.53        2500.00                 NaN
  1143.14        2500.00                 NaN
  1141.75        2500.00                 NaN
  1140.36        2500.00                 NaN
  1138.97        2500.00                 NaN
  1137.58        2500.00                 NaN
  1136.19        2500.00                 NaN
  1134.80        2500.00                 NaN
  1133.41        2500.00                 NaN
  1132.02        2500.00                 NaN
  1130.63        2500.00                 NaN
  1129.24        2500.00                 NaN
  1127.85        2500.00                 NaN
  1126.46        2500.00                 NaN
  1125.07        2500.00                 NaN
  1123.68        2500.00                 NaN
  1122.29        2500.00                 NaN
  1120.90        2500.00                 NaN
  1119.51        2500.00                 NaN
  1118.12        2500.00                 NaN
  1116.73        2500.00                 NaN
  1115.35        2500.00                 NaN
  1113.96        2500.00                 NaN
  1112.57        2500.00                 NaN
  1111.18        2500.00                 NaN
  1109.79        2500.00                 NaN
  1108.40        2500.00                 NaN
  1107.01        2500.00                 NaN
  1105.62        2500.00                 NaN
  1104.23        2500.00                 NaN
  1102.84        2500.00                 NaN
  1101.45        2500.00                 NaN
  1100.06        2500.00                 NaN
  1098.67        2500.00                 NaN
  1097.28        2500.00                 NaN
  1095.89        2500.00                 NaN
  1094.50        2500.00                 NaN
  1093.11        2500.00                 NaN
  1091.72        2500.00                 NaN
  1090.33        2500.00                 NaN
  1088.94        2500.00                 NaN
  1087.55        2500.00                 NaN
  1086.16        2500.00                 NaN
  1084.77        2500.00                 NaN
  1083.38        2500.00                 NaN
  1081.99        2500.00                 NaN
  1080.60        2500.00                 NaN
  1079.21        2500.00                 NaN
  1077.82        2500.00                 NaN
  1076.43        2500.00                 NaN
  1075.04        2500.00                 NaN
  1073.65        2500.00                 NaN
  1072.26        2500.00                 NaN
  1070.87        2500.00                 NaN
  1069.48        2500.00                 NaN
  1068.10        2500.00                 NaN
  1066.71        2500.00                 NaN
  1065.32        2500.00                 NaN
  1063.93        2500.00                 NaN
  1062.54        2500.00                 NaN
  1061.15        2500.00                 NaN
  1059.76        2500.00                 NaN
  1058.37        2500.00                 NaN
  1056.98        2500.00                 NaN
  1055.59        2500.00                 NaN
  1054.20        2500.00                 NaN
  1052.81        2500.00                 NaN
  1051.42        2500.00                 NaN
  1050.03        2500.00                 NaN
  1048.64        2500.00                 NaN
  1047.25        2500.00                 NaN
  1045.86        2500.00                 NaN
  1044.47        2500.00                 NaN
  1043.08        2500.00                 NaN
  1041.69        2500.00                 NaN
  1040.30        2500.00                 NaN
  1038.91        2500.00                 NaN
  1037.52        2500.00                 NaN
  1036.13        2500.00                 NaN
  1034.74        2500.00                 NaN
  1033.35        2500.00                 NaN
  1031.96        2500.00                 NaN
  1030.57        2500.00                 NaN
  1029.18        2500.00                 NaN
  1027.79        2500.00                 NaN
  1026.40        2500.00                 NaN
  1025.01        2500.00                 NaN
  1023.62        2500.00                 NaN
  1022.24        2500.00                 NaN
  1020.85        2500.00                 NaN
  1019.46        2500.00                 NaN
  1018.07        2500.00                 NaN
  1016.68        2500.00                 NaN
  1015.29        2500.00                 NaN
  1013.90        2500.00                 NaN
  1012.51        2500.00                 NaN
  1011.12        2500.00                 NaN
  1009.73        2500.00                 NaN
  1008.34        2500.00                 NaN
  1006.95        2500.00                 NaN
  1005.56        2500.00                 NaN
  1004.17        2500.00                 NaN
  1002.78        2500.00                 NaN
  1001.39        2500.00                 NaN
  1000.00        2500.00                 NaN
