|6.6.6
Archiving\03_Data\eqfrac/QFM_m4.25/GRV/GRV_6.tab                          
           1
T(K)    
  0.000000000000000E+000
  0.000000000000000E+000
           0
           3
T(K)           P(bar)         rho,kg/m3     
  1596.15        2500.00        3244.56     
  1594.66        2500.00        3246.07     
  1593.16        2500.00        3245.72     
  1591.67        2500.00        3246.99     
  1590.17        2500.00        3249.94     
  1588.68        2500.00        3251.86     
  1587.19        2500.00        3250.31     
  1585.69        2500.00        3253.62     
  1584.20        2500.00        3252.57     
  1582.70        2500.00        3253.53     
  1581.21        2500.00        3253.17     
  1579.71        2500.00        3255.06     
  1578.22        2500.00        3253.60     
  1576.73        2500.00        3253.52     
  1575.23        2500.00        3240.20     
  1573.74        2500.00        3241.38     
  1572.24        2500.00        3238.74     
  1570.75        2500.00        3246.99     
  1569.26        2500.00        3249.75     
  1567.76        2500.00        3250.20     
  1566.27        2500.00        3250.94     
  1564.77        2500.00        3251.52     
  1563.28        2500.00        3252.16     
  1561.79        2500.00        3252.61     
  1560.29        2500.00        3252.86     
  1558.80        2500.00        3253.56     
  1557.30        2500.00        3252.09     
  1555.81        2500.00        3243.96     
  1554.31        2500.00        3245.09     
  1552.82        2500.00        3246.29     
  1551.33        2500.00        3252.25     
  1549.83        2500.00        3261.21     
  1548.34        2500.00        3263.26     
  1546.84        2500.00        3264.33     
  1545.35        2500.00        3265.73     
  1543.86        2500.00        3267.29     
  1542.36        2500.00        3268.71     
  1540.87        2500.00        3270.04     
  1539.37        2500.00        3271.28     
  1537.88        2500.00        3272.52     
  1536.39        2500.00        3276.58     
  1534.89        2500.00        3275.40     
  1533.40        2500.00        3276.42     
  1531.90        2500.00        3277.75     
  1530.41        2500.00        3278.88     
  1528.92        2500.00        3279.97     
  1527.42        2500.00        3281.48     
  1525.93        2500.00        3282.64     
  1524.43        2500.00        3283.96     
  1522.94        2500.00        3284.39     
  1521.44        2500.00        3285.67     
  1519.95        2500.00        3286.99     
  1518.46        2500.00        3288.19     
  1516.96        2500.00        3289.81     
  1515.47        2500.00        3290.07     
  1513.97        2500.00        3292.23     
  1512.48        2500.00        3292.79     
  1510.99        2500.00        3294.02     
  1509.49        2500.00        3295.24     
  1508.00        2500.00        3295.65     
  1506.50        2500.00        3297.59     
  1505.01        2500.00        3298.60     
  1503.52        2500.00        3299.86     
  1502.02        2500.00        3301.01     
  1500.53        2500.00        3302.51     
  1499.03        2500.00        3303.51     
  1497.54        2500.00        3304.37     
  1496.04        2500.00        3305.81     
  1494.55        2500.00        3306.87     
  1493.06        2500.00        3308.24     
  1491.56        2500.00        3309.41     
  1490.07        2500.00        3310.50     
  1488.57        2500.00        3311.81     
  1487.08        2500.00        3312.94     
  1485.59        2500.00        3314.14     
  1484.09        2500.00        3315.39     
  1482.60        2500.00        3316.31     
  1481.10        2500.00        3317.76     
  1479.61        2500.00        3318.99     
  1478.12        2500.00        3320.19     
  1476.62        2500.00        3321.57     
  1475.13        2500.00        3322.77     
  1473.63        2500.00        3323.86     
  1472.14        2500.00        3325.25     
  1470.64        2500.00        3326.33     
  1469.15        2500.00        3326.21     
  1467.66        2500.00        3328.61     
  1466.16        2500.00        3330.05     
  1464.67        2500.00        3331.37     
  1463.17        2500.00        3332.61     
  1461.68        2500.00        3333.71     
  1460.19        2500.00        3334.04     
  1458.69        2500.00        3336.33     
  1457.20        2500.00        3337.58     
  1455.70        2500.00        3337.04     
  1454.21        2500.00        3341.47     
  1452.72        2500.00        3341.20     
  1451.22        2500.00        3349.33     
  1449.73        2500.00        3340.49     
  1448.23        2500.00        3344.62     
  1446.74        2500.00        3346.48     
  1445.24        2500.00        3347.72     
  1443.75        2500.00        3348.95     
  1442.26        2500.00        3349.44     
  1440.76        2500.00        3351.26     
  1439.27        2500.00        3363.14     
  1437.77        2500.00        3359.82     
  1436.28        2500.00        3359.48     
  1434.79        2500.00        3348.99     
  1433.29        2500.00        3361.71     
  1431.80        2500.00        3351.89     
  1430.30        2500.00        3354.02     
  1428.81        2500.00        3362.58     
  1427.32        2500.00        3363.86     
  1425.82        2500.00        3365.08     
  1424.33        2500.00        3216.13     
  1422.83        2500.00        3178.12     
  1421.34        2500.00        3180.55     
  1419.84        2500.00        3183.05     
  1418.35        2500.00        3185.38     
  1416.86        2500.00        3187.88     
  1415.36        2500.00        3190.31     
  1413.87        2500.00        3192.72     
  1412.37        2500.00        3195.27     
  1410.88        2500.00        3197.42     
  1409.39        2500.00        3200.24     
  1407.89        2500.00        3202.47     
  1406.40        2500.00        3204.99     
  1404.90        2500.00        3206.77     
  1403.41        2500.00        3210.22     
  1401.92        2500.00        3211.84     
  1400.42        2500.00        3214.92     
  1398.93        2500.00        3217.20     
  1397.43        2500.00        3219.32     
  1395.94        2500.00        3221.98     
  1394.45        2500.00        3224.14     
  1392.95        2500.00        3226.17     
  1391.46        2500.00        3228.54     
  1389.96        2500.00        3231.00     
  1388.47        2500.00        3232.52     
  1386.97        2500.00        3234.61     
  1385.48        2500.00        3234.52     
  1383.99        2500.00        3239.72     
  1382.49        2500.00        3241.47     
  1381.00        2500.00        3243.98     
  1379.50        2500.00        3245.96     
  1378.01        2500.00        3248.04     
  1376.52        2500.00        3250.12     
  1375.02        2500.00        3252.36     
  1373.53        2500.00        3254.22     
  1372.03        2500.00        3256.67     
  1370.54        2500.00        3258.64     
  1369.05        2500.00        3260.57     
  1367.55        2500.00        3263.66     
  1366.06        2500.00        3265.00     
  1364.56        2500.00        3266.78     
  1363.07        2500.00        3266.82     
  1361.57        2500.00        3270.89     
  1360.08        2500.00        3274.78     
  1358.59        2500.00        3271.30     
  1357.09        2500.00        3276.16     
  1355.60        2500.00        3277.33     
  1354.10        2500.00        3279.95     
  1352.61        2500.00        3281.24     
  1351.12        2500.00        3282.90     
  1349.62        2500.00        3282.06     
  1348.13        2500.00        3283.12     
  1346.63        2500.00        3289.72     
  1345.14        2500.00        3295.54     
  1343.65        2500.00        3285.30     
  1342.15        2500.00        3292.11     
  1340.66        2500.00        3293.80     
  1339.16        2500.00        3295.99     
  1337.67        2500.00        3296.84     
  1336.17        2500.00        3297.63     
  1334.68        2500.00        3306.55     
  1333.19        2500.00        3338.24     
  1331.69        2500.00        3336.85     
  1330.20        2500.00        3341.90     
  1328.70        2500.00        3341.04     
  1327.21        2500.00        3341.99     
  1325.72        2500.00        3342.44     
  1324.22        2500.00        3343.52     
  1322.73        2500.00        3344.04     
  1321.23        2500.00        3345.90     
  1319.74        2500.00        3345.04     
  1318.25        2500.00        3345.62     
  1316.75        2500.00        3346.35     
  1315.26        2500.00        3346.60     
  1313.76        2500.00        3347.32     
  1312.27        2500.00        3347.57     
  1310.77        2500.00        3347.58     
  1309.28        2500.00        3345.15     
  1307.79        2500.00        3348.51     
  1306.29        2500.00        3348.51     
  1304.80        2500.00        3349.04     
  1303.30        2500.00        3349.82     
  1301.81        2500.00        2866.22     
  1300.32        2500.00        2864.04     
  1298.82        2500.00        2870.15     
  1297.33        2500.00        2875.76     
  1295.83        2500.00        2880.76     
  1294.34        2500.00        2884.52     
  1292.85        2500.00        2886.72     
  1291.35        2500.00        2895.86     
  1289.86        2500.00        2898.09     
  1288.36        2500.00        2900.15     
  1286.87        2500.00        2903.36     
  1285.38        2500.00        2903.86     
  1283.88        2500.00        2881.59     
  1282.39        2500.00        2893.50     
  1280.89        2500.00        2875.31     
  1279.40        2500.00        2957.93     
  1277.90        2500.00        2909.55     
  1276.41        2500.00        2901.59     
  1274.92        2500.00        2912.24     
  1273.42        2500.00        2922.77     
  1271.93        2500.00        2931.81     
  1270.43        2500.00        2946.42     
  1268.94        2500.00        2778.17     
  1267.45        2500.00        3091.42     
  1265.95        2500.00        2991.03     
  1264.46        2500.00        2850.05     
  1262.96        2500.00        3307.67     
  1261.47        2500.00        3055.22     
  1259.98        2500.00        2775.13     
  1258.48        2500.00        2989.31     
  1256.99        2500.00        2876.75     
  1255.49        2500.00        2936.91     
  1254.00        2500.00        2906.88     
  1252.50        2500.00        2932.83     
  1251.01        2500.00        2883.03     
  1249.52        2500.00        2892.62     
  1248.02        2500.00        2892.51     
  1246.53        2500.00        2741.11     
  1245.03        2500.00        2906.34     
  1243.54        2500.00        2680.48     
  1242.05        2500.00        2757.78     
  1240.55        2500.00        3321.88     
  1239.06        2500.00        3246.51     
  1237.56        2500.00        3192.58     
  1236.07        2500.00        2585.26     
  1234.58        2500.00        3226.49     
  1233.08        2500.00        2689.73     
  1231.59        2500.00        2675.04     
  1230.09        2500.00                 NaN
  1228.60        2500.00                 NaN
  1227.10        2500.00                 NaN
  1225.61        2500.00                 NaN
  1224.12        2500.00                 NaN
  1222.62        2500.00                 NaN
  1221.13        2500.00                 NaN
  1219.63        2500.00                 NaN
  1218.14        2500.00                 NaN
  1216.65        2500.00                 NaN
  1215.15        2500.00                 NaN
  1213.66        2500.00                 NaN
  1212.16        2500.00                 NaN
  1210.67        2500.00                 NaN
  1209.18        2500.00                 NaN
  1207.68        2500.00                 NaN
  1206.19        2500.00                 NaN
  1204.69        2500.00                 NaN
  1203.20        2500.00                 NaN
  1201.70        2500.00                 NaN
  1200.21        2500.00                 NaN
  1198.72        2500.00                 NaN
  1197.22        2500.00                 NaN
  1195.73        2500.00                 NaN
  1194.23        2500.00                 NaN
  1192.74        2500.00                 NaN
  1191.25        2500.00                 NaN
  1189.75        2500.00                 NaN
  1188.26        2500.00                 NaN
  1186.76        2500.00                 NaN
  1185.27        2500.00                 NaN
  1183.78        2500.00                 NaN
  1182.28        2500.00                 NaN
  1180.79        2500.00                 NaN
  1179.29        2500.00                 NaN
  1177.80        2500.00                 NaN
  1176.31        2500.00                 NaN
  1174.81        2500.00                 NaN
  1173.32        2500.00                 NaN
  1171.82        2500.00                 NaN
  1170.33        2500.00                 NaN
  1168.83        2500.00                 NaN
  1167.34        2500.00                 NaN
  1165.85        2500.00                 NaN
  1164.35        2500.00                 NaN
  1162.86        2500.00                 NaN
  1161.36        2500.00                 NaN
  1159.87        2500.00                 NaN
  1158.38        2500.00                 NaN
  1156.88        2500.00                 NaN
  1155.39        2500.00                 NaN
  1153.89        2500.00                 NaN
  1152.40        2500.00                 NaN
  1150.91        2500.00                 NaN
  1149.41        2500.00                 NaN
  1147.92        2500.00                 NaN
  1146.42        2500.00                 NaN
  1144.93        2500.00                 NaN
  1143.43        2500.00                 NaN
  1141.94        2500.00                 NaN
  1140.45        2500.00                 NaN
  1138.95        2500.00                 NaN
  1137.46        2500.00                 NaN
  1135.96        2500.00                 NaN
  1134.47        2500.00                 NaN
  1132.98        2500.00                 NaN
  1131.48        2500.00                 NaN
  1129.99        2500.00                 NaN
  1128.49        2500.00                 NaN
  1127.00        2500.00                 NaN
  1125.51        2500.00                 NaN
  1124.01        2500.00                 NaN
  1122.52        2500.00                 NaN
  1121.02        2500.00                 NaN
  1119.53        2500.00                 NaN
  1118.03        2500.00                 NaN
  1116.54        2500.00                 NaN
  1115.05        2500.00                 NaN
  1113.55        2500.00                 NaN
  1112.06        2500.00                 NaN
  1110.56        2500.00                 NaN
  1109.07        2500.00                 NaN
  1107.58        2500.00                 NaN
  1106.08        2500.00                 NaN
  1104.59        2500.00                 NaN
  1103.09        2500.00                 NaN
  1101.60        2500.00                 NaN
  1100.11        2500.00                 NaN
  1098.61        2500.00                 NaN
  1097.12        2500.00                 NaN
  1095.62        2500.00                 NaN
  1094.13        2500.00                 NaN
  1092.63        2500.00                 NaN
  1091.14        2500.00                 NaN
  1089.65        2500.00                 NaN
  1088.15        2500.00                 NaN
  1086.66        2500.00                 NaN
  1085.16        2500.00                 NaN
  1083.67        2500.00                 NaN
  1082.18        2500.00                 NaN
  1080.68        2500.00                 NaN
  1079.19        2500.00                 NaN
  1077.69        2500.00                 NaN
  1076.20        2500.00                 NaN
  1074.71        2500.00                 NaN
  1073.21        2500.00                 NaN
  1071.72        2500.00                 NaN
  1070.22        2500.00                 NaN
  1068.73        2500.00                 NaN
  1067.23        2500.00                 NaN
  1065.74        2500.00                 NaN
  1064.25        2500.00                 NaN
  1062.75        2500.00                 NaN
  1061.26        2500.00                 NaN
  1059.76        2500.00                 NaN
  1058.27        2500.00                 NaN
  1056.78        2500.00                 NaN
  1055.28        2500.00                 NaN
  1053.79        2500.00                 NaN
  1052.29        2500.00                 NaN
  1050.80        2500.00                 NaN
  1049.31        2500.00                 NaN
  1047.81        2500.00                 NaN
  1046.32        2500.00                 NaN
  1044.82        2500.00                 NaN
  1043.33        2500.00                 NaN
  1041.84        2500.00                 NaN
  1040.34        2500.00                 NaN
  1038.85        2500.00                 NaN
  1037.35        2500.00                 NaN
  1035.86        2500.00                 NaN
  1034.36        2500.00                 NaN
  1032.87        2500.00                 NaN
  1031.38        2500.00                 NaN
  1029.88        2500.00                 NaN
  1028.39        2500.00                 NaN
  1026.89        2500.00                 NaN
  1025.40        2500.00                 NaN
  1023.91        2500.00                 NaN
  1022.41        2500.00                 NaN
  1020.92        2500.00                 NaN
  1019.42        2500.00                 NaN
  1017.93        2500.00                 NaN
  1016.44        2500.00                 NaN
  1014.94        2500.00                 NaN
  1013.45        2500.00                 NaN
  1011.95        2500.00                 NaN
  1010.46        2500.00                 NaN
  1008.96        2500.00                 NaN
  1007.47        2500.00                 NaN
  1005.98        2500.00                 NaN
  1004.48        2500.00                 NaN
  1002.99        2500.00                 NaN
  1001.49        2500.00                 NaN
  1000.00        2500.00                 NaN
